Filename:	D:\TGAdata\„∆√ŒœÈ\20150506\10.pdid

Temperature (°„C)	Heat Flow Endo Up (mW)
10.68	2.2955
10.68	2.2974
10.68	2.2844
10.68	2.2589
10.68	2.2244
10.68	2.1844
10.68	2.1418
10.68	2.0991
10.69	2.0574
10.70	2.0175
10.70	1.9800
10.70	1.9451
10.70	1.9128
10.71	1.8831
10.72	1.8556
10.73	1.8302
10.73	1.8065
10.74	1.7842
10.75	1.7629
10.77	1.7427
10.78	1.7233
10.79	1.7040
10.80	1.6854
10.81	1.6673
10.83	1.6491
10.83	1.6311
10.85	1.6132
10.86	1.5957
10.87	1.5783
10.88	1.5613
10.90	1.5452
10.91	1.5294
10.93	1.5139
10.94	1.4990
10.95	1.4849
10.97	1.4713
10.99	1.4585
11.00	1.4466
11.01	1.4357
11.03	1.4259
11.05	1.4169
11.06	1.4090
11.08	1.4024
11.09	1.3968
11.10	1.3924
11.12	1.3890
11.14	1.3870
11.15	1.3862
11.17	1.3869
11.18	1.3886
11.20	1.3915
11.21	1.3954
11.23	1.4006
11.24	1.4069
11.26	1.4145
11.27	1.4231
11.29	1.4327
11.32	1.4432
11.33	1.4546
11.34	1.4672
11.36	1.4805
11.37	1.4947
11.39	1.5095
11.40	1.5252
11.42	1.5417
11.43	1.5588
11.45	1.5765
11.47	1.5948
11.48	1.6136
11.50	1.6330
11.52	1.6528
11.53	1.6734
11.55	1.6945
11.57	1.7159
11.58	1.7375
11.60	1.7593
11.61	1.7815
11.63	1.8037
11.65	1.8262
11.66	1.8488
11.68	1.8713
11.69	1.8940
11.71	1.9168
11.73	1.9396
11.74	1.9624
11.76	1.9851
11.78	2.0078
11.79	2.0306
11.81	2.0532
11.82	2.0753
11.84	2.0978
11.86	2.1201
11.88	2.1424
11.89	2.1644
11.90	2.1861
11.92	2.2078
11.94	2.2292
11.95	2.2506
11.98	2.2718
11.99	2.2926
12.01	2.3132
12.03	2.3337
12.04	2.3539
12.06	2.3738
12.08	2.3935
12.08	2.4129
12.10	2.4320
12.12	2.4508
12.14	2.4693
12.16	2.4881
12.17	2.5060
12.19	2.5241
12.21	2.5420
12.22	2.5594
12.24	2.5767
12.25	2.5940
12.27	2.6108
12.28	2.6273
12.30	2.6435
12.32	2.6593
12.34	2.6749
12.35	2.6899
12.37	2.7049
12.39	2.7197
12.40	2.7341
12.42	2.7483
12.43	2.7623
12.45	2.7759
12.48	2.7893
12.49	2.8026
12.50	2.8156
12.52	2.8285
12.54	2.8410
12.55	2.8532
12.57	2.8651
12.58	2.8766
12.60	2.8881
12.61	2.8994
12.63	2.9104
12.65	2.9216
12.67	2.9321
12.68	2.9427
12.70	2.9530
12.72	2.9630
12.73	2.9730
12.75	2.9825
12.77	2.9917
12.78	3.0009
12.80	3.0098
12.82	3.0188
12.83	3.0275
12.85	3.0359
12.87	3.0441
12.88	3.0522
12.90	3.0603
12.91	3.0683
12.93	3.0762
12.95	3.0838
12.96	3.0913
12.98	3.0987
13.00	3.1059
13.01	3.1127
13.03	3.1195
13.05	3.1264
13.07	3.1327
13.08	3.1391
13.10	3.1452
13.12	3.1514
13.13	3.1573
13.15	3.1630
13.16	3.1684
13.18	3.1740
13.20	3.1795
13.22	3.1849
13.23	3.1897
13.25	3.1947
13.26	3.1994
13.28	3.2043
13.30	3.2090
13.31	3.2137
13.33	3.2184
13.35	3.2228
13.36	3.2271
13.38	3.2314
13.40	3.2356
13.41	3.2395
13.43	3.2434
13.45	3.2472
13.47	3.2510
13.48	3.2548
13.50	3.2583
13.51	3.2618
13.53	3.2651
13.54	3.2684
13.56	3.2718
13.58	3.2752
13.60	3.2786
13.61	3.2819
13.63	3.2854
13.65	3.2885
13.66	3.2915
13.68	3.2947
13.70	3.2977
13.71	3.3007
13.73	3.3034
13.74	3.3061
13.76	3.3086
13.78	3.3112
13.80	3.3138
13.81	3.3162
13.83	3.3186
13.84	3.3208
13.86	3.3231
13.88	3.3252
13.89	3.3272
13.91	3.3293
13.93	3.3313
13.94	3.3334
13.95	3.3355
13.97	3.3376
14.00	3.3396
14.01	3.3415
14.03	3.3434
14.05	3.3453
14.06	3.3470
14.08	3.3487
14.09	3.3503
14.10	3.3519
14.12	3.3535
14.14	3.3551
14.16	3.3566
14.18	3.3582
14.19	3.3596
14.21	3.3611
14.23	3.3626
14.24	3.3640
14.25	3.3656
14.28	3.3673
14.29	3.3688
14.31	3.3706
14.32	3.3722
14.34	3.3737
14.36	3.3751
14.37	3.3764
14.39	3.3778
14.40	3.3791
14.43	3.3803
14.44	3.3815
14.46	3.3825
14.48	3.3836
14.49	3.3848
14.51	3.3858
14.52	3.3869
14.54	3.3878
14.55	3.3888
14.57	3.3899
14.59	3.3907
14.61	3.3918
14.62	3.3928
14.64	3.3939
14.65	3.3951
14.67	3.3960
14.68	3.3970
14.70	3.3977
14.72	3.3986
14.74	3.3994
14.75	3.4002
14.78	3.4011
14.79	3.4019
14.81	3.4028
14.82	3.4037
14.84	3.4045
14.85	3.4055
14.87	3.4063
14.89	3.4069
14.91	3.4076
14.93	3.4083
14.94	3.4092
14.95	3.4103
14.97	3.4113
14.99	3.4124
15.00	3.4134
15.03	3.4144
15.04	3.4152
15.06	3.4161
15.07	3.4168
15.09	3.4174
15.11	3.4180
15.13	3.4187
15.14	3.4194
15.16	3.4201
15.17	3.4207
15.19	3.4214
15.20	3.4219
15.22	3.4225
15.24	3.4231
15.25	3.4238
15.27	3.4245
15.28	3.4250
15.30	3.4258
15.32	3.4264
15.34	3.4271
15.35	3.4277
15.37	3.4282
15.38	3.4287
15.40	3.4292
15.42	3.4300
15.44	3.4306
15.45	3.4312
15.47	3.4318
15.49	3.4325
15.50	3.4329
15.52	3.4335
15.53	3.4339
15.55	3.4344
15.57	3.4349
15.58	3.4354
15.60	3.4360
15.62	3.4368
15.63	3.4377
15.65	3.4385
15.67	3.4393
15.68	3.4401
15.70	3.4408
15.71	3.4414
15.73	3.4420
15.75	3.4425
15.77	3.4431
15.78	3.4437
15.80	3.4441
15.82	3.4447
15.83	3.4453
15.85	3.4458
15.87	3.4464
15.88	3.4468
15.89	3.4474
15.92	3.4480
15.93	3.4486
15.95	3.4494
15.97	3.4499
15.98	3.4504
16.00	3.4509
16.02	3.4515
16.03	3.4520
16.05	3.4525
16.07	3.4529
16.09	3.4534
16.10	3.4539
16.12	3.4545
16.13	3.4551
16.15	3.4557
16.17	3.4562
16.18	3.4568
16.20	3.4574
16.22	3.4579
16.23	3.4584
16.25	3.4589
16.26	3.4592
16.28	3.4601
16.30	3.4609
16.31	3.4618
16.33	3.4627
16.34	3.4633
16.36	3.4639
16.38	3.4644
16.40	3.4649
16.41	3.4656
16.43	3.4662
16.45	3.4668
16.47	3.4674
16.48	3.4680
16.50	3.4685
16.51	3.4691
16.53	3.4696
16.55	3.4700
16.56	3.4707
16.58	3.4711
16.59	3.4715
16.61	3.4722
16.63	3.4726
16.65	3.4733
16.67	3.4738
16.68	3.4744
16.70	3.4751
16.71	3.4756
16.73	3.4759
16.75	3.4763
16.76	3.4767
16.78	3.4772
16.80	3.4777
16.81	3.4782
16.83	3.4787
16.84	3.4790
16.86	3.4795
16.88	3.4798
16.89	3.4802
16.91	3.4806
16.93	3.4808
16.95	3.4814
16.96	3.4819
16.98	3.4825
17.00	3.4832
17.01	3.4839
17.03	3.4845
17.05	3.4851
17.06	3.4856
17.07	3.4862
17.09	3.4867
17.11	3.4872
17.13	3.4878
17.14	3.4882
17.16	3.4888
17.18	3.4890
17.20	3.4895
17.21	3.4900
17.23	3.4903
17.25	3.4908
17.26	3.4912
17.28	3.4917
17.30	3.4922
17.31	3.4926
17.32	3.4930
17.34	3.4935
17.36	3.4939
17.38	3.4942
17.40	3.4947
17.41	3.4952
17.43	3.4954
17.45	3.4959
17.46	3.4964
17.48	3.4969
17.49	3.4975
17.51	3.4982
17.53	3.4987
17.54	3.4995
17.56	3.5002
17.58	3.5007
17.59	3.5013
17.61	3.5020
17.63	3.5026
17.64	3.5031
17.66	3.5038
17.68	3.5044
17.70	3.5050
17.71	3.5055
17.73	3.5059
17.75	3.5065
17.76	3.5068
17.78	3.5074
17.80	3.5079
17.81	3.5084
17.83	3.5089
17.84	3.5095
17.85	3.5102
17.88	3.5108
17.89	3.5112
17.91	3.5118
17.92	3.5125
17.94	3.5132
17.96	3.5138
17.98	3.5146
17.99	3.5153
18.00	3.5160
18.02	3.5166
18.04	3.5170
18.05	3.5175
18.07	3.5179
18.09	3.5183
18.11	3.5188
18.13	3.5191
18.14	3.5197
18.16	3.5202
18.17	3.5208
18.19	3.5212
18.21	3.5216
18.23	3.5222
18.24	3.5229
18.25	3.5237
18.27	3.5243
18.29	3.5246
18.31	3.5252
18.32	3.5257
18.34	3.5264
18.36	3.5267
18.38	3.5272
18.39	3.5276
18.40	3.5278
18.42	3.5282
18.44	3.5287
18.46	3.5290
18.48	3.5295
18.49	3.5299
18.50	3.5301
18.52	3.5305
18.54	3.5309
18.55	3.5312
18.57	3.5316
18.59	3.5322
18.60	3.5327
18.62	3.5335
18.64	3.5341
18.65	3.5348
18.67	3.5354
18.69	3.5359
18.70	3.5364
18.72	3.5368
18.73	3.5372
18.75	3.5377
18.77	3.5381
18.78	3.5386
18.80	3.5389
18.82	3.5394
18.83	3.5399
18.85	3.5403
18.86	3.5406
18.88	3.5410
18.90	3.5412
18.92	3.5417
18.93	3.5422
18.95	3.5428
18.97	3.5435
18.98	3.5440
19.00	3.5445
19.02	3.5451
19.03	3.5457
19.05	3.5460
19.07	3.5465
19.08	3.5470
19.10	3.5475
19.12	3.5478
19.13	3.5483
19.15	3.5486
19.16	3.5490
19.18	3.5493
19.20	3.5497
19.22	3.5499
19.23	3.5502
19.25	3.5505
19.27	3.5508
19.28	3.5514
19.30	3.5516
19.32	3.5522
19.34	3.5528
19.35	3.5534
19.36	3.5540
19.38	3.5546
19.40	3.5550
19.42	3.5554
19.43	3.5560
19.45	3.5564
19.47	3.5569
19.48	3.5572
19.50	3.5576
19.51	3.5579
19.53	3.5583
19.55	3.5584
19.56	3.5586
19.58	3.5591
19.59	3.5592
19.61	3.5596
19.63	3.5601
19.65	3.5603
19.66	3.5607
19.68	3.5613
19.70	3.5618
19.71	3.5623
19.73	3.5629
19.75	3.5634
19.77	3.5640
19.78	3.5646
19.80	3.5650
19.81	3.5656
19.83	3.5661
19.84	3.5663
19.86	3.5668
19.88	3.5672
19.90	3.5674
19.91	3.5681
19.93	3.5684
19.95	3.5688
19.96	3.5693
19.98	3.5696
19.99	3.5699
20.01	3.5701
20.03	3.5705
20.04	3.5711
20.06	3.5715
20.08	3.5721
20.09	3.5727
20.11	3.5732
20.13	3.5737
20.15	3.5743
20.16	3.5747
20.17	3.5752
20.19	3.5755
20.21	3.5759
20.22	3.5764
20.24	3.5766
20.26	3.5772
20.28	3.5778
20.29	3.5781
20.31	3.5785
20.32	3.5789
20.34	3.5794
20.36	3.5800
20.38	3.5802
20.39	3.5805
20.41	3.5810
20.43	3.5817
20.44	3.5824
20.46	3.5830
20.47	3.5834
20.49	3.5838
20.50	3.5842
20.52	3.5846
20.54	3.5851
20.55	3.5854
20.57	3.5858
20.59	3.5862
20.60	3.5868
20.63	3.5872
20.64	3.5874
20.66	3.5878
20.68	3.5884
20.69	3.5886
20.70	3.5889
20.72	3.5891
20.74	3.5895
20.75	3.5899
20.77	3.5903
20.79	3.5907
20.80	3.5911
20.82	3.5919
20.83	3.5924
20.85	3.5929
20.88	3.5933
20.89	3.5938
20.90	3.5943
20.92	3.5947
20.94	3.5951
20.95	3.5955
20.97	3.5958
20.98	3.5962
21.00	3.5968
21.02	3.5970
21.03	3.5973
21.05	3.5976
21.07	3.5980
21.08	3.5983
21.10	3.5987
21.12	3.5992
21.14	3.5996
21.15	3.6004
21.17	3.6010
21.19	3.6016
21.20	3.6023
21.22	3.6030
21.24	3.6032
21.25	3.6036
21.27	3.6041
21.28	3.6044
21.30	3.6049
21.32	3.6053
21.33	3.6056
21.35	3.6060
21.37	3.6063
21.38	3.6069
21.40	3.6072
21.42	3.6076
21.43	3.6080
21.45	3.6084
21.47	3.6088
21.48	3.6092
21.50	3.6099
21.52	3.6106
21.53	3.6112
21.55	3.6119
21.57	3.6124
21.59	3.6130
21.59	3.6136
21.61	3.6141
21.63	3.6143
21.65	3.6148
21.66	3.6152
21.68	3.6155
21.70	3.6161
21.71	3.6162
21.73	3.6169
21.75	3.6174
21.76	3.6179
21.78	3.6184
21.80	3.6189
21.82	3.6194
21.83	3.6197
21.84	3.6200
21.86	3.6203
21.88	3.6209
21.90	3.6216
21.91	3.6223
21.93	3.6231
21.95	3.6238
21.96	3.6244
21.98	3.6249
22.00	3.6255
22.01	3.6259
22.03	3.6263
22.04	3.6267
22.06	3.6272
22.08	3.6275
22.09	3.6279
22.11	3.6283
22.12	3.6286
22.14	3.6290
22.16	3.6293
22.18	3.6295
22.20	3.6297
22.21	3.6302
22.23	3.6306
22.25	3.6312
22.26	3.6319
22.28	3.6325
22.29	3.6331
22.30	3.6338
22.32	3.6343
22.34	3.6349
22.37	3.6356
22.38	3.6359
22.39	3.6365
22.40	3.6370
22.42	3.6372
22.44	3.6375
22.46	3.6379
22.47	3.6383
22.48	3.6386
22.50	3.6392
22.52	3.6396
22.54	3.6401
22.56	3.6406
22.57	3.6407
22.59	3.6414
22.60	3.6422
22.62	3.6426
22.64	3.6434
22.66	3.6442
22.68	3.6447
22.69	3.6452
22.70	3.6459
22.72	3.6465
22.74	3.6471
22.75	3.6478
22.77	3.6480
22.79	3.6484
22.81	3.6489
22.82	3.6492
22.84	3.6495
22.85	3.6500
22.87	3.6504
22.88	3.6508
22.90	3.6513
22.92	3.6517
22.94	3.6523
22.95	3.6530
22.97	3.6534
22.99	3.6542
23.00	3.6549
23.02	3.6554
23.03	3.6561
23.05	3.6567
23.07	3.6572
23.09	3.6577
23.10	3.6582
23.12	3.6586
23.14	3.6591
23.15	3.6596
23.17	3.6599
23.19	3.6604
23.20	3.6607
23.22	3.6610
23.23	3.6613
23.25	3.6620
23.27	3.6624
23.29	3.6628
23.30	3.6633
23.32	3.6640
23.33	3.6644
23.35	3.6649
23.37	3.6657
23.39	3.6663
23.40	3.6669
23.42	3.6674
23.43	3.6678
23.45	3.6683
23.47	3.6686
23.48	3.6690
23.50	3.6693
23.52	3.6698
23.53	3.6702
23.55	3.6705
23.56	3.6708
23.58	3.6713
23.59	3.6717
23.62	3.6720
23.63	3.6725
23.65	3.6728
23.66	3.6733
23.68	3.6739
23.70	3.6745
23.72	3.6752
23.73	3.6758
23.75	3.6764
23.76	3.6770
23.78	3.6777
23.80	3.6781
23.81	3.6785
23.83	3.6790
23.84	3.6795
23.86	3.6798
23.88	3.6802
23.90	3.6806
23.92	3.6809
23.93	3.6813
23.95	3.6816
23.96	3.6819
23.98	3.6823
23.99	3.6825
24.00	3.6829
24.03	3.6835
24.04	3.6841
24.06	3.6849
24.08	3.6856
24.09	3.6859
24.11	3.6866
24.13	3.6872
24.14	3.6877
24.16	3.6882
24.18	3.6887
24.19	3.6890
24.21	3.6894
24.23	3.6898
24.24	3.6902
24.26	3.6907
24.28	3.6911
24.29	3.6914
24.31	3.6917
24.32	3.6922
24.34	3.6926
24.36	3.6929
24.38	3.6933
24.39	3.6939
24.41	3.6945
24.43	3.6954
24.44	3.6961
24.46	3.6967
24.48	3.6974
24.49	3.6979
24.50	3.6984
24.52	3.6989
24.54	3.6992
24.56	3.6997
24.57	3.7002
24.59	3.7005
24.61	3.7011
24.62	3.7015
24.64	3.7019
24.66	3.7022
24.67	3.7026
24.69	3.7030
24.70	3.7033
24.72	3.7037
24.74	3.7042
24.75	3.7048
24.77	3.7054
24.79	3.7059
24.80	3.7064
24.82	3.7071
24.84	3.7075
24.86	3.7081
24.88	3.7086
24.89	3.7091
24.90	3.7097
24.92	3.7102
24.93	3.7106
24.95	3.7111
24.97	3.7117
24.99	3.7121
25.00	3.7126
25.02	3.7130
25.03	3.7135
25.05	3.7139
25.07	3.7142
25.08	3.7146
25.10	3.7150
25.12	3.7156
25.14	3.7164
25.15	3.7170
25.17	3.7176
25.19	3.7181
25.20	3.7188
25.22	3.7194
25.23	3.7200
25.25	3.7203
25.27	3.7208
25.28	3.7211
25.30	3.7215
25.32	3.7220
25.33	3.7222
25.35	3.7226
25.36	3.7231
25.38	3.7237
25.40	3.7241
25.42	3.7245
25.43	3.7248
25.45	3.7251
25.47	3.7256
25.48	3.7260
25.50	3.7265
25.52	3.7272
25.53	3.7280
25.55	3.7284
25.56	3.7289
25.58	3.7294
25.59	3.7300
25.61	3.7306
25.63	3.7310
25.65	3.7315
25.66	3.7321
25.68	3.7325
25.70	3.7329
25.72	3.7334
25.73	3.7339
25.75	3.7341
25.76	3.7345
25.78	3.7351
25.79	3.7352
25.81	3.7355
25.83	3.7358
25.84	3.7361
25.87	3.7369
25.88	3.7378
25.90	3.7384
25.92	3.7390
25.93	3.7397
25.95	3.7403
25.96	3.7410
25.98	3.7413
25.99	3.7417
26.01	3.7420
26.03	3.7424
26.05	3.7430
26.06	3.7434
26.08	3.7437
26.09	3.7440
26.11	3.7445
26.13	3.7449
26.15	3.7452
26.16	3.7456
26.18	3.7460
26.19	3.7468
26.21	3.7472
26.23	3.7477
26.24	3.7484
26.25	3.7489
26.28	3.7496
26.30	3.7502
26.31	3.7507
26.32	3.7512
26.34	3.7517
26.36	3.7523
26.38	3.7527
26.39	3.7534
26.40	3.7538
26.43	3.7544
26.44	3.7549
26.45	3.7555
26.47	3.7559
26.49	3.7562
26.51	3.7566
26.53	3.7571
26.54	3.7574
26.56	3.7581
26.57	3.7587
26.59	3.7593
26.60	3.7600
26.63	3.7606
26.64	3.7612
26.66	3.7618
26.68	3.7623
26.69	3.7627
26.70	3.7631
26.72	3.7638
26.74	3.7642
26.75	3.7648
26.77	3.7652
26.79	3.7656
26.80	3.7661
26.82	3.7665
26.84	3.7671
26.85	3.7675
26.87	3.7680
26.89	3.7685
26.91	3.7691
26.93	3.7697
26.94	3.7703
26.96	3.7710
26.98	3.7716
26.99	3.7722
27.00	3.7728
27.02	3.7732
27.04	3.7738
27.05	3.7743
27.07	3.7748
27.09	3.7753
27.10	3.7757
27.12	3.7760
27.14	3.7765
27.15	3.7769
27.17	3.7773
27.18	3.7777
27.20	3.7781
27.22	3.7785
27.23	3.7791
27.25	3.7797
27.27	3.7803
27.29	3.7810
27.30	3.7816
27.32	3.7822
27.33	3.7827
27.35	3.7831
27.37	3.7835
27.39	3.7839
27.40	3.7843
27.42	3.7846
27.44	3.7851
27.45	3.7854
27.47	3.7857
27.48	3.7860
27.50	3.7862
27.52	3.7864
27.53	3.7867
27.55	3.7872
27.57	3.7875
27.58	3.7879
27.60	3.7881
27.62	3.7884
27.63	3.7890
27.65	3.7896
27.67	3.7902
27.68	3.7910
27.70	3.7916
27.72	3.7920
27.74	3.7925
27.75	3.7931
27.76	3.7935
27.78	3.7938
27.80	3.7942
27.82	3.7945
27.83	3.7950
27.85	3.7954
27.87	3.7958
27.88	3.7962
27.90	3.7967
27.92	3.7970
27.93	3.7976
27.95	3.7980
27.97	3.7984
27.98	3.7990
28.00	3.7996
28.02	3.8002
28.03	3.8008
28.05	3.8017
28.06	3.8021
28.08	3.8028
28.10	3.8032
28.12	3.8039
28.13	3.8042
28.15	3.8046
28.17	3.8049
28.18	3.8054
28.20	3.8059
28.22	3.8064
28.23	3.8069
28.25	3.8071
28.26	3.8077
28.28	3.8082
28.30	3.8084
28.32	3.8090
28.33	3.8094
28.34	3.8101
28.36	3.8107
28.38	3.8113
28.40	3.8120
28.42	3.8129
28.43	3.8136
28.45	3.8144
28.46	3.8149
28.48	3.8153
28.50	3.8159
28.51	3.8162
28.53	3.8169
28.55	3.8172
28.56	3.8178
28.58	3.8182
28.59	3.8187
28.61	3.8191
28.63	3.8194
28.65	3.8199
28.66	3.8203
28.68	3.8208
28.70	3.8214
28.72	3.8221
28.73	3.8228
28.75	3.8237
28.77	3.8244
28.78	3.8251
28.79	3.8256
28.81	3.8264
28.83	3.8268
28.85	3.8273
28.86	3.8276
28.88	3.8282
28.90	3.8286
28.91	3.8292
28.93	3.8296
28.95	3.8301
28.96	3.8305
28.98	3.8309
29.00	3.8314
29.01	3.8318
29.03	3.8323
29.05	3.8326
29.07	3.8332
29.08	3.8343
29.09	3.8348
29.11	3.8357
29.13	3.8363
29.15	3.8365
29.16	3.8374
29.18	3.8380
29.19	3.8388
29.21	3.8391
29.23	3.8396
29.25	3.8399
29.26	3.8403
29.28	3.8406
29.30	3.8410
29.31	3.8412
29.32	3.8417
29.34	3.8419
29.36	3.8426
29.38	3.8428
29.39	3.8430
29.41	3.8436
29.43	3.8442
29.44	3.8449
29.46	3.8457
29.48	3.8465
29.50	3.8471
29.51	3.8476
29.53	3.8481
29.54	3.8487
29.56	3.8492
29.57	3.8498
29.59	3.8502
29.61	3.8509
29.63	3.8512
29.64	3.8515
29.66	3.8520
29.68	3.8526
29.69	3.8530
29.70	3.8532
29.73	3.8538
29.74	3.8540
29.75	3.8545
29.78	3.8549
29.79	3.8555
29.81	3.8561
29.82	3.8567
29.84	3.8574
29.85	3.8579
29.88	3.8586
29.89	3.8590
29.90	3.8595
29.92	3.8603
29.94	3.8605
29.96	3.8610
29.98	3.8617
29.99	3.8620
30.01	3.8621
30.03	3.8626
30.04	3.8629
30.05	3.8632
30.07	3.8637
30.09	3.8640
30.10	3.8647
30.13	3.8652
30.14	3.8658
30.16	3.8664
30.17	3.8670
30.19	3.8678
30.20	3.8686
30.22	3.8690
30.24	3.8697
30.25	3.8704
30.28	3.8705
30.29	3.8710
30.30	3.8713
30.32	3.8717
30.34	3.8719
30.35	3.8723
30.37	3.8727
30.39	3.8732
30.40	3.8736
30.42	3.8741
30.44	3.8745
30.45	3.8751
30.47	3.8756
30.49	3.8762
30.50	3.8768
30.52	3.8774
30.53	3.8779
30.55	3.8787
30.57	3.8793
30.59	3.8796
30.60	3.8801
30.62	3.8807
30.64	3.8811
30.65	3.8814
30.67	3.8818
30.69	3.8821
30.70	3.8825
30.72	3.8829
30.73	3.8832
30.75	3.8836
30.77	3.8840
30.79	3.8843
30.80	3.8846
30.81	3.8852
30.84	3.8857
30.86	3.8866
30.87	3.8874
30.89	3.8879
30.90	3.8884
30.92	3.8890
30.94	3.8896
30.95	3.8901
30.97	3.8904
30.99	3.8908
31.00	3.8912
31.02	3.8916
31.03	3.8922
31.05	3.8926
31.07	3.8928
31.08	3.8932
31.10	3.8938
31.12	3.8942
31.13	3.8947
31.15	3.8953
31.17	3.8957
31.18	3.8961
31.20	3.8965
31.21	3.8971
31.23	3.8978
31.25	3.8988
31.26	3.8993
31.28	3.8998
31.30	3.9003
31.31	3.9008
31.33	3.9012
31.35	3.9018
31.36	3.9024
31.38	3.9029
31.40	3.9033
31.42	3.9037
31.43	3.9040
31.45	3.9043
31.46	3.9046
31.48	3.9050
31.50	3.9055
31.51	3.9058
31.53	3.9063
31.55	3.9067
31.56	3.9073
31.57	3.9080
31.60	3.9087
31.61	3.9094
31.63	3.9100
31.65	3.9106
31.66	3.9112
31.68	3.9118
31.70	3.9123
31.72	3.9129
31.73	3.9133
31.75	3.9140
31.77	3.9145
31.78	3.9151
31.80	3.9154
31.82	3.9158
31.82	3.9162
31.85	3.9167
31.86	3.9171
31.88	3.9177
31.90	3.9181
31.91	3.9190
31.93	3.9197
31.94	3.9203
31.96	3.9207
31.98	3.9211
31.99	3.9217
32.01	3.9225
32.03	3.9232
32.05	3.9238
32.06	3.9245
32.08	3.9249
32.09	3.9254
32.11	3.9259
32.13	3.9263
32.15	3.9269
32.16	3.9274
32.17	3.9277
32.20	3.9279
32.21	3.9285
32.23	3.9288
32.24	3.9293
32.26	3.9301
32.27	3.9306
32.29	3.9314
32.31	3.9319
32.33	3.9325
32.34	3.9330
32.36	3.9336
32.38	3.9342
32.39	3.9347
32.41	3.9353
32.43	3.9358
32.44	3.9364
32.45	3.9368
32.47	3.9372
32.49	3.9375
32.51	3.9379
32.52	3.9381
32.54	3.9387
32.56	3.9392
32.58	3.9396
32.59	3.9400
32.61	3.9408
32.63	3.9415
32.65	3.9420
32.66	3.9426
32.67	3.9433
32.69	3.9440
32.71	3.9448
32.73	3.9453
32.74	3.9457
32.76	3.9461
32.78	3.9465
32.80	3.9471
32.81	3.9473
32.83	3.9477
32.84	3.9481
32.85	3.9487
32.87	3.9491
32.89	3.9497
32.91	3.9502
32.92	3.9507
32.94	3.9509
32.95	3.9515
32.97	3.9523
32.99	3.9529
33.00	3.9536
33.02	3.9542
33.04	3.9548
33.05	3.9553
33.07	3.9558
33.09	3.9563
33.10	3.9566
33.12	3.9572
33.14	3.9578
33.16	3.9582
33.17	3.9586
33.19	3.9591
33.20	3.9597
33.22	3.9601
33.23	3.9605
33.25	3.9609
33.27	3.9611
33.28	3.9616
33.30	3.9617
33.32	3.9624
33.33	3.9631
33.36	3.9638
33.38	3.9643
33.39	3.9648
33.40	3.9653
33.42	3.9657
33.44	3.9662
33.45	3.9668
33.47	3.9672
33.49	3.9677
33.50	3.9681
33.52	3.9684
33.53	3.9690
33.55	3.9695
33.57	3.9697
33.58	3.9701
33.60	3.9703
33.62	3.9706
33.63	3.9709
33.65	3.9712
33.67	3.9719
33.68	3.9725
33.70	3.9731
33.72	3.9739
33.73	3.9746
33.75	3.9752
33.77	3.9756
33.79	3.9760
33.80	3.9765
33.82	3.9769
33.84	3.9772
33.85	3.9777
33.87	3.9779
33.89	3.9784
33.90	3.9789
33.92	3.9793
33.93	3.9797
33.95	3.9799
33.97	3.9805
33.98	3.9808
34.00	3.9812
34.02	3.9816
34.03	3.9823
34.05	3.9829
34.07	3.9836
34.08	3.9843
34.09	3.9847
34.12	3.9855
34.13	3.9860
34.15	3.9865
34.17	3.9871
34.18	3.9877
34.20	3.9881
34.21	3.9887
34.23	3.9892
34.25	3.9895
34.26	3.9900
34.28	3.9905
34.30	3.9911
34.31	3.9915
34.33	3.9921
34.35	3.9927
34.37	3.9932
34.38	3.9938
34.40	3.9943
34.41	3.9951
34.43	3.9957
34.44	3.9963
34.46	3.9970
34.48	3.9975
34.49	3.9980
34.51	3.9986
34.53	3.9992
34.55	3.9995
34.57	4.0001
34.58	4.0006
34.59	4.0010
34.61	4.0015
34.63	4.0019
34.64	4.0024
34.66	4.0027
34.68	4.0032
34.69	4.0037
34.71	4.0042
34.73	4.0048
34.74	4.0055
34.76	4.0062
34.77	4.0068
34.79	4.0074
34.81	4.0080
34.83	4.0089
34.84	4.0093
34.86	4.0099
34.87	4.0106
34.89	4.0111
34.91	4.0115
34.92	4.0119
34.94	4.0124
34.96	4.0130
34.97	4.0132
34.99	4.0136
35.01	4.0140
35.02	4.0145
35.05	4.0150
35.06	4.0155
35.08	4.0162
35.09	4.0166
35.11	4.0173
35.13	4.0181
35.14	4.0187
35.16	4.0194
35.18	4.0197
35.19	4.0200
35.20	4.0206
35.22	4.0210
35.24	4.0214
35.26	4.0217
35.27	4.0221
35.29	4.0224
35.31	4.0228
35.33	4.0233
35.34	4.0238
35.36	4.0243
35.38	4.0246
35.39	4.0250
35.41	4.0252
35.42	4.0259
35.44	4.0266
35.45	4.0272
35.48	4.0280
35.49	4.0287
35.50	4.0293
35.52	4.0301
35.53	4.0305
35.55	4.0310
35.57	4.0314
35.59	4.0319
35.60	4.0324
35.62	4.0329
35.64	4.0333
35.66	4.0337
35.67	4.0343
35.69	4.0347
35.70	4.0350
35.73	4.0353
35.74	4.0356
35.75	4.0360
35.77	4.0365
35.79	4.0373
35.80	4.0380
35.82	4.0388
35.84	4.0395
35.85	4.0401
35.87	4.0406
35.89	4.0412
35.91	4.0417
35.92	4.0421
35.94	4.0426
35.95	4.0429
35.97	4.0434
35.99	4.0438
36.00	4.0445
36.02	4.0448
36.04	4.0452
36.05	4.0456
36.07	4.0461
36.08	4.0465
36.11	4.0470
36.13	4.0475
36.14	4.0481
36.15	4.0488
36.17	4.0496
36.18	4.0502
36.20	4.0509
36.22	4.0513
36.24	4.0520
36.25	4.0524
36.27	4.0529
36.29	4.0534
36.30	4.0539
36.32	4.0543
36.33	4.0547
36.35	4.0551
36.37	4.0558
36.38	4.0562
36.40	4.0567
36.42	4.0572
36.44	4.0576
36.45	4.0579
36.47	4.0583
36.48	4.0587
36.50	4.0594
36.52	4.0601
36.53	4.0607
36.55	4.0615
36.57	4.0621
36.58	4.0627
36.60	4.0633
36.62	4.0638
36.63	4.0643
36.65	4.0647
36.67	4.0653
36.69	4.0657
36.70	4.0661
36.72	4.0666
36.73	4.0670
36.75	4.0672
36.77	4.0677
36.79	4.0681
36.80	4.0683
36.82	4.0687
36.84	4.0690
36.85	4.0698
36.87	4.0705
36.88	4.0713
36.90	4.0720
36.92	4.0725
36.94	4.0730
36.95	4.0735
36.96	4.0740
36.98	4.0745
36.99	4.0750
37.01	4.0757
37.03	4.0761
37.05	4.0766
37.07	4.0770
37.08	4.0774
37.09	4.0776
37.11	4.0781
37.13	4.0784
37.15	4.0787
37.16	4.0793
37.18	4.0799
37.20	4.0807
37.22	4.0814
37.23	4.0821
37.24	4.0828
37.27	4.0834
37.28	4.0839
37.30	4.0846
37.31	4.0850
37.33	4.0856
37.35	4.0861
37.36	4.0868
37.38	4.0872
37.40	4.0877
37.42	4.0882
37.43	4.0885
37.45	4.0889
37.47	4.0895
37.48	4.0900
37.49	4.0904
37.51	4.0910
37.53	4.0915
37.55	4.0922
37.57	4.0929
37.58	4.0936
37.59	4.0942
37.61	4.0948
37.63	4.0954
37.65	4.0960
37.66	4.0965
37.68	4.0970
37.70	4.0977
37.71	4.0982
37.73	4.0987
37.74	4.0992
37.76	4.0996
37.78	4.1000
37.79	4.1005
37.81	4.1008
37.83	4.1013
37.84	4.1018
37.86	4.1024
37.88	4.1029
37.89	4.1035
37.91	4.1041
37.93	4.1048
37.95	4.1053
37.96	4.1058
37.98	4.1063
37.99	4.1067
38.01	4.1072
38.02	4.1076
38.04	4.1083
38.06	4.1087
38.08	4.1090
38.09	4.1094
38.11	4.1099
38.13	4.1102
38.15	4.1106
38.16	4.1111
38.18	4.1114
38.20	4.1117
38.21	4.1123
38.23	4.1127
38.24	4.1132
38.26	4.1139
38.28	4.1145
38.30	4.1150
38.31	4.1155
38.33	4.1160
38.34	4.1165
38.36	4.1169
38.38	4.1174
38.39	4.1179
38.41	4.1181
38.43	4.1187
38.44	4.1192
38.46	4.1195
38.48	4.1198
38.49	4.1203
38.51	4.1207
38.52	4.1211
38.54	4.1218
38.56	4.1221
38.58	4.1225
38.59	4.1233
38.61	4.1238
38.63	4.1244
38.64	4.1251
38.65	4.1256
38.67	4.1262
38.69	4.1269
38.72	4.1275
38.73	4.1280
38.74	4.1285
38.75	4.1290
38.77	4.1294
38.79	4.1299
38.81	4.1303
38.83	4.1306
38.84	4.1311
38.86	4.1313
38.88	4.1316
38.89	4.1321
38.91	4.1323
38.93	4.1329
38.94	4.1336
38.96	4.1344
38.98	4.1351
38.99	4.1358
39.00	4.1366
39.02	4.1371
39.04	4.1377
39.05	4.1380
39.08	4.1385
39.09	4.1392
39.10	4.1395
39.12	4.1399
39.14	4.1404
39.15	4.1409
39.17	4.1414
39.19	4.1419
39.20	4.1421
39.22	4.1424
39.24	4.1429
39.25	4.1433
39.27	4.1439
39.29	4.1445
39.30	4.1451
39.32	4.1456
39.34	4.1463
39.35	4.1467
39.38	4.1475
39.39	4.1481
39.40	4.1487
39.42	4.1492
39.44	4.1496
39.45	4.1501
39.48	4.1504
39.49	4.1510
39.50	4.1515
39.52	4.1519
39.53	4.1525
39.55	4.1528
39.57	4.1530
39.59	4.1535
39.60	4.1540
39.62	4.1545
39.63	4.1552
39.65	4.1558
39.67	4.1566
39.69	4.1573
39.70	4.1578
39.72	4.1584
39.73	4.1590
39.75	4.1595
39.77	4.1600
39.79	4.1606
39.81	4.1610
39.82	4.1613
39.84	4.1619
39.85	4.1624
39.87	4.1628
39.88	4.1634
39.90	4.1637
39.92	4.1640
39.93	4.1644
39.95	4.1648
39.96	4.1654
39.98	4.1661
40.00	4.1668
40.02	4.1674
40.04	4.1680
40.05	4.1687
40.07	4.1694
40.08	4.1699
40.10	4.1703
40.12	4.1710
40.13	4.1714
40.15	4.1720
40.16	4.1727
40.18	4.1732
40.19	4.1737
40.21	4.1742
40.23	4.1747
40.24	4.1748
40.27	4.1752
40.28	4.1755
40.30	4.1759
40.31	4.1766
40.33	4.1773
40.34	4.1780
40.36	4.1789
40.38	4.1797
40.40	4.1803
40.42	4.1808
40.43	4.1813
40.45	4.1818
40.46	4.1822
40.48	4.1826
40.50	4.1831
40.52	4.1836
40.53	4.1841
40.55	4.1845
40.57	4.1849
40.58	4.1854
40.59	4.1858
40.62	4.1863
40.63	4.1869
40.65	4.1872
40.66	4.1877
40.68	4.1883
40.70	4.1890
40.72	4.1897
40.73	4.1904
40.74	4.1911
40.76	4.1916
40.78	4.1922
40.80	4.1926
40.81	4.1931
40.83	4.1936
40.84	4.1940
40.86	4.1944
40.88	4.1949
40.90	4.1954
40.91	4.1960
40.93	4.1965
40.95	4.1969
40.96	4.1973
40.98	4.1978
40.99	4.1983
41.01	4.1988
41.03	4.1994
41.05	4.2000
41.06	4.2006
41.08	4.2012
41.09	4.2015
41.11	4.2022
41.13	4.2026
41.15	4.2031
41.16	4.2036
41.18	4.2041
41.20	4.2046
41.22	4.2051
41.23	4.2055
41.24	4.2059
41.26	4.2063
41.27	4.2070
41.29	4.2074
41.31	4.2077
41.33	4.2082
41.34	4.2086
41.36	4.2093
41.37	4.2100
41.39	4.2106
41.41	4.2112
41.43	4.2118
41.44	4.2124
41.46	4.2130
41.48	4.2136
41.49	4.2142
41.51	4.2147
41.52	4.2152
41.54	4.2157
41.56	4.2161
41.58	4.2166
41.59	4.2170
41.61	4.2176
41.63	4.2182
41.65	4.2186
41.66	4.2190
41.68	4.2196
41.69	4.2201
41.70	4.2208
41.73	4.2216
41.74	4.2222
41.76	4.2228
41.77	4.2234
41.80	4.2240
41.80	4.2245
41.82	4.2250
41.84	4.2255
41.86	4.2263
41.88	4.2268
41.89	4.2272
41.91	4.2276
41.93	4.2281
41.94	4.2286
41.95	4.2290
41.98	4.2294
41.99	4.2299
42.01	4.2304
42.02	4.2308
42.04	4.2313
42.06	4.2321
42.08	4.2326
42.09	4.2332
42.11	4.2340
42.13	4.2345
42.14	4.2352
42.16	4.2357
42.18	4.2363
42.19	4.2368
42.21	4.2372
42.23	4.2377
42.24	4.2382
42.25	4.2387
42.27	4.2392
42.29	4.2396
42.31	4.2401
42.33	4.2407
42.34	4.2412
42.36	4.2418
42.38	4.2422
42.39	4.2428
42.40	4.2435
42.43	4.2441
42.44	4.2447
42.45	4.2455
42.47	4.2462
42.49	4.2467
42.50	4.2472
42.52	4.2478
42.54	4.2481
42.55	4.2488
42.57	4.2492
42.59	4.2497
42.61	4.2502
42.63	4.2509
42.64	4.2514
42.65	4.2520
42.67	4.2525
42.69	4.2529
42.70	4.2534
42.72	4.2538
42.74	4.2541
42.75	4.2547
42.77	4.2552
42.79	4.2560
42.80	4.2567
42.83	4.2574
42.84	4.2580
42.85	4.2587
42.87	4.2592
42.88	4.2597
42.90	4.2602
42.93	4.2606
42.94	4.2610
42.95	4.2615
42.97	4.2620
42.99	4.2627
43.00	4.2631
43.02	4.2635
43.04	4.2640
43.05	4.2644
43.07	4.2649
43.08	4.2653
43.10	4.2658
43.12	4.2663
43.14	4.2668
43.15	4.2674
43.17	4.2680
43.19	4.2686
43.20	4.2692
43.22	4.2699
43.23	4.2705
43.25	4.2709
43.27	4.2714
43.28	4.2718
43.30	4.2723
43.32	4.2727
43.33	4.2730
43.35	4.2736
43.37	4.2738
43.38	4.2744
43.40	4.2749
43.42	4.2755
43.44	4.2759
43.45	4.2767
43.47	4.2774
43.49	4.2781
43.50	4.2788
43.51	4.2793
43.53	4.2796
43.55	4.2803
43.57	4.2807
43.58	4.2812
43.60	4.2816
43.62	4.2821
43.63	4.2826
43.65	4.2831
43.66	4.2836
43.68	4.2839
43.70	4.2844
43.71	4.2848
43.73	4.2852
43.75	4.2857
43.77	4.2861
43.78	4.2865
43.80	4.2872
43.81	4.2879
43.83	4.2886
43.85	4.2894
43.87	4.2899
43.88	4.2905
43.90	4.2911
43.91	4.2915
43.93	4.2921
43.94	4.2925
43.96	4.2928
43.98	4.2934
43.99	4.2941
44.01	4.2943
44.03	4.2949
44.05	4.2953
44.07	4.2957
44.08	4.2962
44.10	4.2966
44.12	4.2972
44.13	4.2978
44.15	4.2983
44.16	4.2989
44.18	4.2995
44.19	4.3001
44.21	4.3006
44.23	4.3011
44.24	4.3016
44.26	4.3021
44.28	4.3028
44.30	4.3035
44.31	4.3040
44.33	4.3044
44.34	4.3048
44.36	4.3054
44.38	4.3060
44.39	4.3064
44.41	4.3067
44.43	4.3072
44.44	4.3076
44.46	4.3082
44.48	4.3087
44.49	4.3095
44.50	4.3101
44.52	4.3108
44.55	4.3115
44.56	4.3120
44.58	4.3126
44.59	4.3131
44.61	4.3137
44.63	4.3142
44.64	4.3145
44.65	4.3148
44.67	4.3153
44.69	4.3157
44.71	4.3161
44.72	4.3165
44.74	4.3168
44.76	4.3172
44.78	4.3177
44.79	4.3181
44.80	4.3186
44.82	4.3193
44.84	4.3200
44.86	4.3206
44.88	4.3211
44.89	4.3218
44.91	4.3223
44.93	4.3231
44.94	4.3235
44.96	4.3242
44.98	4.3246
44.99	4.3252
45.01	4.3257
45.03	4.3262
45.04	4.3266
45.05	4.3270
45.08	4.3276
45.09	4.3281
45.10	4.3285
45.12	4.3289
45.14	4.3294
45.16	4.3299
45.17	4.3306
45.19	4.3310
45.20	4.3316
45.22	4.3322
45.24	4.3329
45.26	4.3333
45.27	4.3339
45.29	4.3345
45.30	4.3350
45.32	4.3356
45.34	4.3361
45.35	4.3367
45.37	4.3371
45.39	4.3376
45.41	4.3380
45.43	4.3385
45.44	4.3389
45.46	4.3395
45.47	4.3401
45.49	4.3407
45.50	4.3414
45.52	4.3423
45.54	4.3430
45.55	4.3436
45.57	4.3444
45.59	4.3451
45.60	4.3456
45.62	4.3461
45.64	4.3466
45.65	4.3471
45.67	4.3475
45.68	4.3481
45.70	4.3486
45.72	4.3492
45.74	4.3497
45.75	4.3501
45.77	4.3506
45.79	4.3509
45.81	4.3514
45.82	4.3517
45.83	4.3524
45.85	4.3530
45.87	4.3538
45.89	4.3545
45.90	4.3551
45.91	4.3560
45.93	4.3567
45.95	4.3574
45.97	4.3580
45.99	4.3584
46.00	4.3589
46.02	4.3593
46.04	4.3600
46.05	4.3604
46.07	4.3607
46.09	4.3613
46.10	4.3616
46.12	4.3622
46.13	4.3629
46.15	4.3632
46.17	4.3637
46.19	4.3642
46.20	4.3649
46.22	4.3655
46.23	4.3660
46.25	4.3667
46.27	4.3674
46.29	4.3682
46.30	4.3687
46.32	4.3694
46.33	4.3698
46.35	4.3704
46.38	4.3708
46.39	4.3714
46.40	4.3717
46.42	4.3722
46.44	4.3728
46.45	4.3734
46.47	4.3737
46.48	4.3743
46.50	4.3745
46.52	4.3751
46.53	4.3757
46.55	4.3765
46.57	4.3771
46.58	4.3778
46.60	4.3784
46.62	4.3789
46.64	4.3795
46.65	4.3800
46.67	4.3805
46.69	4.3809
46.70	4.3815
46.72	4.3818
46.73	4.3823
46.75	4.3830
46.77	4.3833
46.78	4.3837
46.80	4.3840
46.82	4.3845
46.83	4.3848
46.84	4.3853
46.87	4.3858
46.88	4.3865
46.90	4.3872
46.92	4.3878
46.93	4.3884
46.95	4.3892
46.97	4.3898
46.98	4.3905
47.00	4.3910
47.02	4.3916
47.03	4.3921
47.05	4.3924
47.07	4.3927
47.08	4.3932
47.09	4.3937
47.11	4.3943
47.13	4.3947
47.15	4.3952
47.16	4.3955
47.18	4.3962
47.20	4.3965
47.22	4.3972
47.23	4.3978
47.25	4.3982
47.27	4.3988
47.28	4.3994
47.30	4.4000
47.31	4.4006
47.33	4.4012
47.35	4.4018
47.37	4.4024
47.39	4.4029
47.40	4.4033
47.41	4.4038
47.43	4.4045
47.45	4.4050
47.46	4.4056
47.48	4.4059
47.50	4.4066
47.51	4.4069
47.53	4.4073
47.55	4.4077
47.57	4.4085
47.58	4.4093
47.59	4.4098
47.62	4.4106
47.63	4.4112
47.65	4.4117
47.66	4.4123
47.68	4.4130
47.70	4.4134
47.72	4.4141
47.73	4.4146
47.75	4.4151
47.77	4.4158
47.78	4.4162
47.80	4.4165
47.81	4.4171
47.83	4.4175
47.84	4.4179
47.86	4.4183
47.88	4.4189
47.90	4.4195
47.92	4.4202
47.94	4.4208
47.95	4.4216
47.97	4.4222
47.98	4.4229
48.00	4.4236
48.01	4.4241
48.03	4.4250
48.05	4.4255
48.06	4.4262
48.08	4.4266
48.10	4.4271
48.12	4.4276
48.13	4.4283
48.15	4.4289
48.17	4.4295
48.18	4.4300
48.20	4.4302
48.21	4.4304
48.23	4.4311
48.25	4.4317
48.26	4.4324
48.28	4.4333
48.30	4.4339
48.31	4.4347
48.33	4.4354
48.34	4.4361
48.35	4.4367
48.38	4.4372
48.39	4.4377
48.41	4.4382
48.43	4.4387
48.44	4.4391
48.46	4.4396
48.48	4.4399
48.49	4.4403
48.51	4.4409
48.52	4.4413
48.54	4.4418
48.56	4.4423
48.58	4.4429
48.59	4.4434
48.61	4.4440
48.63	4.4446
48.64	4.4452
48.66	4.4460
48.68	4.4464
48.69	4.4470
48.71	4.4476
48.73	4.4480
48.74	4.4487
48.76	4.4493
48.77	4.4498
48.79	4.4504
48.81	4.4510
48.83	4.4514
48.84	4.4519
48.86	4.4525
48.88	4.4528
48.89	4.4533
48.91	4.4537
48.93	4.4543
48.94	4.4552
48.96	4.4558
48.98	4.4564
48.99	4.4571
49.00	4.4577
49.02	4.4581
49.04	4.4586
49.06	4.4592
49.08	4.4598
49.09	4.4603
49.11	4.4608
49.13	4.4612
49.14	4.4618
49.15	4.4623
49.17	4.4626
49.19	4.4631
49.21	4.4634
49.23	4.4637
49.24	4.4642
49.25	4.4649
49.27	4.4655
49.29	4.4663
49.31	4.4668
49.33	4.4675
49.34	4.4679
49.36	4.4683
49.38	4.4687
49.39	4.4693
49.41	4.4698
49.42	4.4702
49.44	4.4707
49.45	4.4710
49.48	4.4714
49.49	4.4718
49.50	4.4722
49.52	4.4728
49.54	4.4731
49.55	4.4736
49.57	4.4738
49.59	4.4744
49.60	4.4749
49.62	4.4757
49.64	4.4763
49.66	4.4770
49.67	4.4777
49.69	4.4782
49.70	4.4789
49.72	4.4794
49.74	4.4800
49.75	4.4806
49.77	4.4810
49.79	4.4817
49.80	4.4823
49.83	4.4828
49.84	4.4834
49.85	4.4838
49.87	4.4842
49.89	4.4849
49.90	4.4853
49.92	4.4858
49.93	4.4865
49.95	4.4872
49.98	4.4876
49.99	4.4884
50.00	4.4891
50.02	4.4896
50.04	4.4900
50.05	4.4907
50.07	4.4912
50.09	4.4918
50.10	4.4925
50.12	4.4929
50.13	4.4935
50.15	4.4942
50.18	4.4944
50.19	4.4950
50.20	4.4955
50.22	4.4961
50.24	4.4965
50.25	4.4969
50.27	4.4973
50.29	4.4978
50.30	4.4986
50.32	4.4992
50.33	4.4999
50.35	4.5007
50.37	4.5013
50.39	4.5019
50.40	4.5024
50.42	4.5031
50.43	4.5035
50.45	4.5042
50.47	4.5047
50.48	4.5054
50.50	4.5059
50.52	4.5064
50.53	4.5068
50.55	4.5074
50.56	4.5078
50.58	4.5082
50.60	4.5087
50.62	4.5092
50.63	4.5099
50.65	4.5106
50.66	4.5111
50.68	4.5120
50.70	4.5128
50.72	4.5133
50.73	4.5139
50.75	4.5145
50.76	4.5148
50.78	4.5154
50.80	4.5161
50.81	4.5165
50.83	4.5172
50.84	4.5176
50.86	4.5182
50.88	4.5185
50.90	4.5190
50.92	4.5195
50.93	4.5202
50.95	4.5206
50.96	4.5212
50.98	4.5218
51.00	4.5227
51.02	4.5235
51.03	4.5241
51.05	4.5248
51.06	4.5254
51.08	4.5261
51.10	4.5267
51.12	4.5272
51.14	4.5275
51.15	4.5281
51.17	4.5286
51.18	4.5291
51.20	4.5297
51.22	4.5301
51.23	4.5307
51.25	4.5312
51.27	4.5316
51.28	4.5321
51.30	4.5329
51.31	4.5335
51.33	4.5343
51.34	4.5350
51.36	4.5357
51.38	4.5364
51.40	4.5369
51.42	4.5374
51.43	4.5380
51.45	4.5384
51.46	4.5389
51.48	4.5395
51.49	4.5400
51.51	4.5404
51.53	4.5410
51.55	4.5417
51.56	4.5420
51.58	4.5425
51.59	4.5429
51.61	4.5432
51.63	4.5437
51.65	4.5444
51.67	4.5452
51.68	4.5458
51.70	4.5465
51.71	4.5470
51.73	4.5478
51.75	4.5484
51.76	4.5489
51.77	4.5495
51.80	4.5501
51.82	4.5505
51.83	4.5511
51.84	4.5516
51.86	4.5520
51.88	4.5524
51.90	4.5530
51.91	4.5535
51.93	4.5543
51.95	4.5547
51.96	4.5554
51.98	4.5560
52.00	4.5567
52.01	4.5575
52.03	4.5581
52.05	4.5589
52.06	4.5597
52.08	4.5604
52.09	4.5611
52.11	4.5617
52.13	4.5623
52.15	4.5629
52.16	4.5635
52.18	4.5640
52.19	4.5643
52.21	4.5647
52.23	4.5652
52.25	4.5657
52.26	4.5662
52.27	4.5667
52.29	4.5673
52.31	4.5679
52.33	4.5688
52.34	4.5695
52.36	4.5703
52.38	4.5713
52.39	4.5719
52.41	4.5726
52.43	4.5732
52.44	4.5738
52.46	4.5744
52.48	4.5748
52.49	4.5755
52.51	4.5759
52.52	4.5764
52.54	4.5770
52.56	4.5774
52.57	4.5779
52.59	4.5785
52.61	4.5788
52.63	4.5792
52.65	4.5798
52.66	4.5804
52.68	4.5812
52.70	4.5820
52.71	4.5827
52.73	4.5832
52.74	4.5839
52.76	4.5843
52.77	4.5850
52.79	4.5856
52.81	4.5859
52.83	4.5865
52.84	4.5871
52.85	4.5877
52.87	4.5882
52.89	4.5888
52.90	4.5892
52.92	4.5897
52.94	4.5901
52.96	4.5905
52.97	4.5909
52.99	4.5913
53.00	4.5920
53.02	4.5925
53.04	4.5933
53.05	4.5939
53.07	4.5944
53.08	4.5952
53.10	4.5958
53.13	4.5963
53.14	4.5967
53.15	4.5973
53.17	4.5976
53.19	4.5982
53.20	4.5986
53.23	4.5991
53.24	4.5997
53.25	4.6002
53.27	4.6006
53.29	4.6012
53.30	4.6017
53.33	4.6022
53.34	4.6029
53.36	4.6033
53.38	4.6042
53.39	4.6050
53.40	4.6058
53.42	4.6065
53.44	4.6071
53.46	4.6077
53.48	4.6084
53.48	4.6091
53.50	4.6095
53.52	4.6102
53.54	4.6109
53.55	4.6115
53.57	4.6121
53.59	4.6127
53.60	4.6132
53.63	4.6138
53.64	4.6145
53.66	4.6147
53.68	4.6153
53.69	4.6159
53.70	4.6168
53.73	4.6176
53.74	4.6182
53.75	4.6188
53.77	4.6195
53.79	4.6202
53.80	4.6208
53.82	4.6214
53.83	4.6219
53.85	4.6227
53.87	4.6232
53.89	4.6237
53.90	4.6242
53.92	4.6247
53.93	4.6253
53.95	4.6259
53.97	4.6263
53.99	4.6269
54.00	4.6274
54.02	4.6280
54.04	4.6286
54.05	4.6294
54.07	4.6301
54.08	4.6307
54.10	4.6315
54.12	4.6320
54.14	4.6326
54.15	4.6332
54.17	4.6336
54.19	4.6341
54.20	4.6347
54.22	4.6351
54.23	4.6355
54.25	4.6362
54.27	4.6367
54.28	4.6371
54.30	4.6376
54.32	4.6382
54.34	4.6385
54.35	4.6391
54.37	4.6398
54.38	4.6404
54.40	4.6411
54.42	4.6417
54.43	4.6423
54.45	4.6432
54.47	4.6439
54.48	4.6442
54.50	4.6448
54.52	4.6455
54.53	4.6459
54.55	4.6466
54.57	4.6471
54.58	4.6477
54.60	4.6482
54.62	4.6486
54.63	4.6490
54.65	4.6493
54.67	4.6498
54.68	4.6502
54.70	4.6508
54.72	4.6514
54.73	4.6523
54.75	4.6532
54.77	4.6537
54.79	4.6546
54.80	4.6554
54.82	4.6559
54.84	4.6565
54.85	4.6571
54.87	4.6577
54.88	4.6581
54.90	4.6587
54.92	4.6595
54.93	4.6598
54.95	4.6606
54.97	4.6613
54.98	4.6618
55.00	4.6623
55.02	4.6629
55.04	4.6635
55.05	4.6641
55.07	4.6648
55.08	4.6655
55.09	4.6664
55.12	4.6672
55.13	4.6678
55.15	4.6687
55.17	4.6693
55.18	4.6698
55.20	4.6703
55.22	4.6709
55.23	4.6713
55.25	4.6718
55.26	4.6722
55.29	4.6728
55.30	4.6733
55.32	4.6740
55.33	4.6743
55.35	4.6750
55.37	4.6755
55.38	4.6763
55.40	4.6772
55.40	4.6779
55.43	4.6785
55.46	4.6792
55.47	4.6799
55.48	4.6802
55.48	4.6809
55.50	4.6814
55.52	4.6816
55.53	4.6822
55.55	4.6826
55.57	4.6829
55.59	4.6834
55.62	4.6839
55.63	4.6843
55.65	4.6846
55.67	4.6851
55.68	4.6855
55.70	4.6862
55.72	4.6872
55.73	4.6878
55.75	4.6885
55.76	4.6893
55.78	4.6899
55.80	4.6905
55.81	4.6911
55.83	4.6918
55.85	4.6925
55.86	4.6931
55.88	4.6935
55.90	4.6940
55.92	4.6947
55.93	4.6951
55.95	4.6957
55.96	4.6962
55.98	4.6964
56.00	4.6969
56.01	4.6974
56.03	4.6979
56.05	4.6986
56.06	4.6993
56.08	4.7003
56.09	4.7009
56.11	4.7018
56.13	4.7026
56.15	4.7034
56.16	4.7039
56.18	4.7043
56.20	4.7048
56.21	4.7054
56.23	4.7059
56.25	4.7063
56.26	4.7070
56.27	4.7076
56.29	4.7083
56.31	4.7089
56.33	4.7094
56.34	4.7102
56.36	4.7110
56.38	4.7115
56.39	4.7122
56.41	4.7130
56.43	4.7138
56.45	4.7146
56.46	4.7153
56.48	4.7159
56.50	4.7165
56.51	4.7172
56.52	4.7178
56.55	4.7184
56.56	4.7188
56.58	4.7192
56.59	4.7200
56.61	4.7207
56.63	4.7212
56.64	4.7219
56.66	4.7224
56.68	4.7230
56.69	4.7235
56.71	4.7241
56.73	4.7248
56.74	4.7254
56.76	4.7263
56.77	4.7270
56.79	4.7276
56.81	4.7282
56.83	4.7288
56.84	4.7295
56.86	4.7303
56.88	4.7309
56.90	4.7315
56.91	4.7320
56.93	4.7325
56.94	4.7331
56.96	4.7338
56.98	4.7345
56.99	4.7350
57.00	4.7356
57.02	4.7361
57.04	4.7365
57.06	4.7370
57.07	4.7378
57.09	4.7385
57.11	4.7392
57.13	4.7399
57.14	4.7405
57.16	4.7411
57.18	4.7416
57.19	4.7421
57.21	4.7427
57.23	4.7434
57.24	4.7441
57.26	4.7446
57.27	4.7449
57.29	4.7454
57.31	4.7461
57.33	4.7465
57.34	4.7470
57.36	4.7476
57.38	4.7482
57.39	4.7488
57.41	4.7496
57.43	4.7503
57.45	4.7510
57.46	4.7519
57.48	4.7524
57.49	4.7531
57.50	4.7537
57.52	4.7543
57.54	4.7550
57.55	4.7555
57.57	4.7561
57.59	4.7566
57.60	4.7572
57.63	4.7577
57.64	4.7584
57.66	4.7590
57.68	4.7596
57.69	4.7602
57.70	4.7607
57.72	4.7613
57.74	4.7619
57.75	4.7626
57.77	4.7633
57.79	4.7639
57.80	4.7646
57.82	4.7651
57.84	4.7657
57.86	4.7664
57.88	4.7669
57.89	4.7675
57.91	4.7681
57.92	4.7688
57.94	4.7694
57.96	4.7699
57.97	4.7704
57.99	4.7708
58.01	4.7716
58.02	4.7722
58.04	4.7728
58.05	4.7735
58.07	4.7742
58.09	4.7748
58.11	4.7755
58.13	4.7762
58.14	4.7769
58.16	4.7776
58.17	4.7780
58.19	4.7786
58.20	4.7790
58.22	4.7797
58.24	4.7803
58.25	4.7809
58.27	4.7815
58.29	4.7819
58.30	4.7823
58.32	4.7828
58.34	4.7833
58.35	4.7840
58.37	4.7846
58.39	4.7851
58.40	4.7859
58.42	4.7867
58.43	4.7874
58.45	4.7881
58.47	4.7888
58.49	4.7896
58.50	4.7903
58.52	4.7908
58.54	4.7916
58.55	4.7924
58.57	4.7930
58.59	4.7937
58.60	4.7943
58.62	4.7950
58.64	4.7954
58.65	4.7960
58.67	4.7965
58.68	4.7971
58.70	4.7978
58.71	4.7981
58.73	4.7987
58.75	4.7994
58.77	4.8002
58.78	4.8009
58.80	4.8017
58.82	4.8024
58.83	4.8033
58.85	4.8041
58.87	4.8047
58.88	4.8052
58.90	4.8061
58.92	4.8067
58.93	4.8072
58.95	4.8077
58.97	4.8083
58.99	4.8088
59.00	4.8094
59.02	4.8101
59.03	4.8108
59.05	4.8112
59.07	4.8118
59.09	4.8126
59.10	4.8132
59.12	4.8141
59.13	4.8150
59.15	4.8158
59.17	4.8165
59.18	4.8173
59.20	4.8179
59.22	4.8184
59.23	4.8191
59.25	4.8197
59.27	4.8203
59.29	4.8209
59.30	4.8216
59.32	4.8222
59.34	4.8227
59.35	4.8232
59.37	4.8238
59.38	4.8244
59.40	4.8253
59.42	4.8262
59.43	4.8270
59.45	4.8277
59.47	4.8286
59.49	4.8293
59.50	4.8299
59.51	4.8306
59.53	4.8314
59.55	4.8322
59.57	4.8329
59.58	4.8335
59.60	4.8340
59.62	4.8346
59.63	4.8353
59.65	4.8359
59.67	4.8366
59.68	4.8372
59.70	4.8377
59.71	4.8382
59.73	4.8389
59.75	4.8395
59.76	4.8403
59.78	4.8411
59.80	4.8419
59.82	4.8427
59.83	4.8435
59.85	4.8440
59.87	4.8446
59.88	4.8453
59.90	4.8461
59.91	4.8465
59.93	4.8472
59.95	4.8476
59.96	4.8481
59.98	4.8486
60.00	4.8492
60.01	4.8497
60.03	4.8502
60.05	4.8506
60.07	4.8513
60.08	4.8521
60.09	4.8528
60.11	4.8536
60.13	4.8543
60.15	4.8550
60.16	4.8557
60.18	4.8564
60.20	4.8569
60.21	4.8576
60.23	4.8581
60.25	4.8586
60.26	4.8591
60.28	4.8597
60.29	4.8602
60.31	4.8605
60.33	4.8611
60.34	4.8617
60.36	4.8624
60.38	4.8628
60.40	4.8634
60.41	4.8641
60.43	4.8648
60.45	4.8654
60.46	4.8662
60.48	4.8670
60.50	4.8676
60.51	4.8684
60.53	4.8692
60.55	4.8699
60.56	4.8706
60.58	4.8713
60.60	4.8718
60.61	4.8723
60.63	4.8729
60.65	4.8735
60.66	4.8742
60.68	4.8749
60.70	4.8752
60.71	4.8757
60.73	4.8764
60.75	4.8770
60.76	4.8778
60.77	4.8785
60.79	4.8793
60.81	4.8803
60.83	4.8811
60.84	4.8816
60.86	4.8822
60.88	4.8830
60.90	4.8837
60.91	4.8845
60.93	4.8852
60.94	4.8857
60.96	4.8863
60.98	4.8870
60.99	4.8877
61.01	4.8881
61.02	4.8886
61.04	4.8891
61.06	4.8895
61.08	4.8904
61.09	4.8912
61.11	4.8919
61.13	4.8928
61.14	4.8934
61.16	4.8944
61.18	4.8951
61.19	4.8960
61.21	4.8968
61.23	4.8974
61.24	4.8979
61.26	4.8987
61.27	4.8993
61.29	4.8999
61.31	4.9005
61.33	4.9010
61.34	4.9015
61.35	4.9020
61.37	4.9028
61.39	4.9034
61.40	4.9041
61.42	4.9049
61.44	4.9057
61.46	4.9067
61.48	4.9073
61.49	4.9079
61.51	4.9086
61.52	4.9093
61.54	4.9101
61.56	4.9107
61.58	4.9115
61.59	4.9122
61.61	4.9127
61.62	4.9135
61.64	4.9141
61.65	4.9147
61.67	4.9153
61.69	4.9158
61.70	4.9164
61.73	4.9170
61.74	4.9176
61.76	4.9184
61.77	4.9193
61.79	4.9199
61.80	4.9207
61.82	4.9214
61.84	4.9221
61.86	4.9229
61.88	4.9237
61.89	4.9241
61.90	4.9248
61.92	4.9256
61.93	4.9262
61.95	4.9270
61.97	4.9276
61.99	4.9283
62.00	4.9289
62.02	4.9295
62.04	4.9301
62.05	4.9307
62.07	4.9313
62.09	4.9322
62.11	4.9329
62.12	4.9337
62.14	4.9344
62.15	4.9352
62.17	4.9360
62.18	4.9366
62.20	4.9373
62.22	4.9381
62.24	4.9390
62.26	4.9397
62.27	4.9402
62.28	4.9406
62.30	4.9411
62.32	4.9418
62.34	4.9423
62.35	4.9428
62.37	4.9434
62.39	4.9438
62.40	4.9445
62.42	4.9453
62.44	4.9459
62.45	4.9466
62.47	4.9473
62.48	4.9480
62.50	4.9485
62.52	4.9493
62.53	4.9499
62.55	4.9506
62.57	4.9513
62.58	4.9519
62.59	4.9526
62.62	4.9532
62.64	4.9536
62.66	4.9542
62.67	4.9546
62.69	4.9553
62.70	4.9558
62.72	4.9564
62.73	4.9569
62.75	4.9576
62.77	4.9584
62.79	4.9591
62.80	4.9599
62.82	4.9606
62.83	4.9612
62.85	4.9618
62.87	4.9626
62.88	4.9633
62.90	4.9640
62.92	4.9647
62.93	4.9651
62.95	4.9656
62.97	4.9661
62.98	4.9669
63.00	4.9674
63.01	4.9680
63.03	4.9687
63.05	4.9693
63.06	4.9700
63.08	4.9707
63.09	4.9716
63.11	4.9724
63.13	4.9734
63.15	4.9742
63.17	4.9750
63.18	4.9756
63.20	4.9764
63.22	4.9771
63.23	4.9776
63.25	4.9783
63.26	4.9788
63.28	4.9795
63.30	4.9802
63.32	4.9809
63.34	4.9814
63.35	4.9822
63.36	4.9829
63.38	4.9836
63.40	4.9842
63.42	4.9850
63.43	4.9858
63.45	4.9867
63.46	4.9875
63.48	4.9883
63.50	4.9891
63.51	4.9898
63.53	4.9904
63.55	4.9911
63.57	4.9916
63.58	4.9923
63.60	4.9927
63.62	4.9934
63.63	4.9939
63.65	4.9944
63.67	4.9950
63.68	4.9955
63.70	4.9961
63.71	4.9967
63.73	4.9972
63.75	4.9980
63.76	4.9988
63.78	4.9993
63.80	5.0002
63.81	5.0009
63.83	5.0016
63.85	5.0022
63.87	5.0030
63.88	5.0036
63.90	5.0042
63.92	5.0047
63.93	5.0054
63.95	5.0060
63.97	5.0066
63.98	5.0070
64.00	5.0074
64.02	5.0078
64.04	5.0084
64.05	5.0089
64.07	5.0095
64.08	5.0101
64.10	5.0109
64.12	5.0116
64.13	5.0127
64.15	5.0135
64.17	5.0140
64.18	5.0148
64.20	5.0157
64.21	5.0164
64.23	5.0170
64.25	5.0178
64.27	5.0184
64.28	5.0191
64.30	5.0195
64.32	5.0202
64.33	5.0209
64.34	5.0216
64.36	5.0222
64.38	5.0228
64.40	5.0234
64.42	5.0243
64.43	5.0250
64.45	5.0256
64.46	5.0264
64.48	5.0271
64.50	5.0279
64.51	5.0284
64.53	5.0291
64.55	5.0299
64.57	5.0305
64.58	5.0312
64.59	5.0319
64.62	5.0325
64.63	5.0331
64.64	5.0337
64.67	5.0343
64.68	5.0348
64.70	5.0355
64.72	5.0361
64.73	5.0368
64.75	5.0374
64.76	5.0381
64.78	5.0390
64.80	5.0397
64.81	5.0406
64.83	5.0413
64.84	5.0419
64.87	5.0425
64.88	5.0433
64.89	5.0439
64.91	5.0447
64.93	5.0453
64.95	5.0459
64.96	5.0465
64.98	5.0472
65.00	5.0481
65.01	5.0487
65.03	5.0494
65.04	5.0501
65.06	5.0508
65.08	5.0514
65.09	5.0521
65.11	5.0528
65.13	5.0535
65.14	5.0542
65.16	5.0549
65.18	5.0557
65.20	5.0564
65.21	5.0571
65.23	5.0579
65.25	5.0585
65.26	5.0592
65.28	5.0598
65.30	5.0605
65.31	5.0611
65.33	5.0617
65.34	5.0623
65.36	5.0628
65.38	5.0633
65.40	5.0639
65.41	5.0647
65.43	5.0654
65.45	5.0663
65.46	5.0669
65.48	5.0678
65.49	5.0686
65.51	5.0692
65.53	5.0700
65.55	5.0706
65.56	5.0712
65.58	5.0720
65.59	5.0725
65.61	5.0731
65.63	5.0737
65.64	5.0742
65.66	5.0749
65.68	5.0754
65.70	5.0760
65.71	5.0766
65.72	5.0771
65.74	5.0777
65.76	5.0784
65.78	5.0794
65.80	5.0800
65.81	5.0805
65.83	5.0812
65.84	5.0821
65.86	5.0827
65.88	5.0833
65.89	5.0839
65.91	5.0846
65.93	5.0852
65.95	5.0859
65.96	5.0865
65.98	5.0870
65.99	5.0876
66.01	5.0883
66.03	5.0890
66.04	5.0897
66.06	5.0901
66.08	5.0910
66.09	5.0918
66.11	5.0924
66.13	5.0931
66.14	5.0939
66.16	5.0945
66.18	5.0951
66.20	5.0961
66.22	5.0965
66.23	5.0971
66.25	5.0977
66.26	5.0982
66.27	5.0988
66.29	5.0993
66.31	5.0998
66.33	5.1003
66.34	5.1007
66.36	5.1012
66.38	5.1017
66.39	5.1022
66.41	5.1030
66.42	5.1037
66.44	5.1044
66.46	5.1050
66.47	5.1056
66.49	5.1063
66.51	5.1070
66.53	5.1078
66.55	5.1084
66.56	5.1088
66.58	5.1094
66.59	5.1101
66.61	5.1106
66.63	5.1110
66.64	5.1115
66.66	5.1121
66.67	5.1126
66.70	5.1131
66.71	5.1138
66.72	5.1143
66.74	5.1151
66.76	5.1160
66.78	5.1170
66.79	5.1176
66.81	5.1185
66.83	5.1191
66.84	5.1196
66.86	5.1201
66.88	5.1207
66.89	5.1212
66.91	5.1216
66.93	5.1222
66.94	5.1228
66.96	5.1232
66.97	5.1238
66.99	5.1244
67.01	5.1251
67.03	5.1256
67.05	5.1261
67.06	5.1267
67.08	5.1274
67.09	5.1282
67.11	5.1290
67.13	5.1298
67.15	5.1307
67.16	5.1315
67.17	5.1322
67.19	5.1330
67.21	5.1336
67.23	5.1342
67.25	5.1349
67.25	5.1353
67.27	5.1359
67.29	5.1366
67.31	5.1371
67.33	5.1376
67.34	5.1384
67.35	5.1386
67.38	5.1393
67.39	5.1399
67.40	5.1405
67.42	5.1413
67.44	5.1418
67.45	5.1426
67.47	5.1433
67.49	5.1440
67.51	5.1446
67.53	5.1452
67.54	5.1458
67.56	5.1465
67.58	5.1471
67.59	5.1476
67.61	5.1481
67.63	5.1486
67.64	5.1491
67.65	5.1499
67.67	5.1504
67.69	5.1512
67.71	5.1519
67.72	5.1526
67.74	5.1535
67.76	5.1541
67.77	5.1550
67.79	5.1555
67.80	5.1562
67.82	5.1567
67.84	5.1574
67.85	5.1579
67.87	5.1587
67.89	5.1594
67.90	5.1600
67.92	5.1606
67.94	5.1614
67.95	5.1619
67.97	5.1623
67.99	5.1629
68.00	5.1634
68.02	5.1638
68.03	5.1645
68.05	5.1652
68.07	5.1660
68.09	5.1667
68.10	5.1674
68.12	5.1681
68.13	5.1686
68.15	5.1695
68.17	5.1701
68.20	5.1707
68.21	5.1714
68.22	5.1721
68.23	5.1728
68.25	5.1733
68.27	5.1739
68.29	5.1745
68.30	5.1749
68.32	5.1755
68.34	5.1761
68.35	5.1767
68.37	5.1772
68.39	5.1779
68.40	5.1784
68.42	5.1793
68.44	5.1800
68.45	5.1806
68.47	5.1814
68.49	5.1820
68.50	5.1826
68.52	5.1833
68.54	5.1840
68.55	5.1844
68.57	5.1850
68.59	5.1857
68.60	5.1862
68.62	5.1867
68.63	5.1873
68.65	5.1878
68.67	5.1885
68.69	5.1890
68.70	5.1895
68.72	5.1902
68.73	5.1910
68.75	5.1918
68.77	5.1925
68.79	5.1932
68.80	5.1940
68.82	5.1947
68.84	5.1953
68.85	5.1957
68.86	5.1962
68.88	5.1965
68.90	5.1973
68.92	5.1979
68.94	5.1985
68.95	5.1991
68.97	5.1995
68.98	5.2000
69.00	5.2004
69.02	5.2012
69.03	5.2017
69.05	5.2026
69.07	5.2032
69.09	5.2040
69.10	5.2046
69.12	5.2053
69.14	5.2060
69.15	5.2065
69.17	5.2070
69.19	5.2078
69.20	5.2083
69.22	5.2089
69.24	5.2096
69.25	5.2098
69.27	5.2104
69.28	5.2110
69.30	5.2114
69.31	5.2121
69.33	5.2126
69.35	5.2129
69.37	5.2137
69.38	5.2142
69.40	5.2152
69.42	5.2160
69.43	5.2166
69.45	5.2174
69.47	5.2180
69.48	5.2189
69.50	5.2195
69.52	5.2202
69.53	5.2208
69.55	5.2215
69.57	5.2220
69.59	5.2225
69.60	5.2230
69.62	5.2233
69.63	5.2239
69.65	5.2243
69.67	5.2248
69.68	5.2253
69.70	5.2258
69.72	5.2264
69.73	5.2272
69.75	5.2281
69.76	5.2289
69.78	5.2296
69.80	5.2304
69.82	5.2311
69.83	5.2316
69.85	5.2324
69.86	5.2330
69.88	5.2334
69.90	5.2340
69.91	5.2344
69.93	5.2350
69.95	5.2356
69.97	5.2361
69.98	5.2366
70.00	5.2372
70.02	5.2377
70.03	5.2382
70.05	5.2388
70.07	5.2395
70.08	5.2400
70.10	5.2407
70.12	5.2414
70.13	5.2422
70.15	5.2428
70.17	5.2435
70.18	5.2441
70.20	5.2446
70.22	5.2453
70.23	5.2459
70.25	5.2465
70.27	5.2470
70.28	5.2477
70.30	5.2481
70.31	5.2487
70.33	5.2492
70.35	5.2498
70.37	5.2505
70.38	5.2512
70.40	5.2520
70.41	5.2528
70.43	5.2534
70.45	5.2541
70.46	5.2549
70.48	5.2557
70.50	5.2564
70.51	5.2572
70.53	5.2577
70.55	5.2585
70.56	5.2589
70.58	5.2594
70.60	5.2602
70.61	5.2607
70.63	5.2611
70.64	5.2617
70.66	5.2625
70.68	5.2629
70.70	5.2637
70.72	5.2644
70.73	5.2652
70.75	5.2659
70.76	5.2666
70.78	5.2672
70.80	5.2680
70.81	5.2687
70.83	5.2694
70.84	5.2700
70.86	5.2708
70.88	5.2713
70.89	5.2718
70.91	5.2725
70.93	5.2731
70.94	5.2736
70.96	5.2740
70.98	5.2746
71.00	5.2751
71.01	5.2757
71.03	5.2766
71.05	5.2772
71.06	5.2780
71.08	5.2787
71.09	5.2793
71.11	5.2801
71.13	5.2806
71.14	5.2814
71.16	5.2820
71.17	5.2827
71.20	5.2830
71.21	5.2835
71.23	5.2840
71.25	5.2845
71.26	5.2849
71.28	5.2853
71.30	5.2857
71.31	5.2863
71.33	5.2869
71.35	5.2875
71.36	5.2881
71.38	5.2886
71.39	5.2894
71.41	5.2900
71.42	5.2907
71.44	5.2914
71.46	5.2921
71.48	5.2925
71.50	5.2932
71.51	5.2939
71.53	5.2944
71.55	5.2949
71.56	5.2955
71.58	5.2960
71.59	5.2965
71.61	5.2970
71.63	5.2973
71.64	5.2976
71.65	5.2982
71.67	5.2987
71.69	5.2995
71.71	5.3003
71.73	5.3009
71.74	5.3017
71.76	5.3024
71.78	5.3031
71.79	5.3038
71.81	5.3044
71.83	5.3050
71.84	5.3056
71.86	5.3062
71.88	5.3068
71.89	5.3073
71.91	5.3082
71.92	5.3085
71.94	5.3092
71.96	5.3098
71.97	5.3103
72.00	5.3109
72.01	5.3113
72.03	5.3120
72.05	5.3125
72.06	5.3133
72.08	5.3139
72.09	5.3146
72.11	5.3153
72.12	5.3159
72.14	5.3166
72.16	5.3172
72.17	5.3177
72.19	5.3184
72.21	5.3191
72.23	5.3195
72.25	5.3201
72.26	5.3206
72.28	5.3211
72.29	5.3217
72.31	5.3222
72.33	5.3229
72.34	5.3235
72.35	5.3243
72.37	5.3251
72.39	5.3258
72.40	5.3268
72.42	5.3275
72.44	5.3280
72.46	5.3288
72.47	5.3296
72.49	5.3303
72.51	5.3310
72.53	5.3316
72.54	5.3323
72.56	5.3329
72.58	5.3334
72.59	5.3340
72.61	5.3345
72.62	5.3351
72.64	5.3357
72.66	5.3364
72.67	5.3367
72.69	5.3375
72.70	5.3383
72.72	5.3389
72.74	5.3396
72.75	5.3403
72.77	5.3410
72.79	5.3416
72.81	5.3422
72.83	5.3429
72.84	5.3436
72.86	5.3443
72.88	5.3448
72.89	5.3454
72.90	5.3459
72.92	5.3466
72.94	5.3471
72.96	5.3478
72.97	5.3482
72.99	5.3489
73.01	5.3496
73.03	5.3502
73.04	5.3511
73.05	5.3518
73.08	5.3524
73.09	5.3531
73.11	5.3536
73.13	5.3541
73.14	5.3546
73.16	5.3553
73.17	5.3559
73.19	5.3564
73.20	5.3572
73.23	5.3575
73.24	5.3582
73.26	5.3588
73.28	5.3593
73.29	5.3599
73.31	5.3605
73.33	5.3610
73.34	5.3617
73.36	5.3625
73.38	5.3632
73.39	5.3639
73.41	5.3646
73.42	5.3652
73.44	5.3657
73.46	5.3665
73.48	5.3668
73.50	5.3676
73.51	5.3682
73.53	5.3689
73.55	5.3695
73.56	5.3699
73.58	5.3704
73.59	5.3709
73.61	5.3715
73.63	5.3717
73.64	5.3724
73.66	5.3727
73.67	5.3737
73.69	5.3740
73.70	5.3751
73.72	5.3756
73.74	5.3760
73.75	5.3769
73.77	5.3777
73.79	5.3785
73.81	5.3787
73.83	5.3792
73.84	5.3800
73.85	5.3807
73.87	5.3817
73.89	5.3825
73.91	5.3827
73.92	5.3829
73.94	5.3833
73.95	5.3845
73.97	5.3845
73.99	5.3852
74.00	5.3856
74.02	5.3865
74.04	5.3870
74.05	5.3879
74.08	5.3886
74.09	5.3892
74.11	5.3899
74.13	5.3906
74.14	5.3913
74.16	5.3918
74.18	5.3925
74.19	5.3933
74.20	5.3938
74.22	5.3944
74.24	5.3950
74.25	5.3956
74.27	5.3960
74.29	5.3966
74.30	5.3971
74.33	5.3979
74.34	5.3985
74.36	5.3993
74.37	5.4001
74.39	5.4008
74.40	5.4016
74.42	5.4026
74.44	5.4032
74.46	5.4039
74.47	5.4044
74.49	5.4051
74.51	5.4056
74.53	5.4062
74.54	5.4068
74.56	5.4072
74.58	5.4079
74.59	5.4088
74.60	5.4092
74.63	5.4095
74.64	5.4103
74.66	5.4108
74.67	5.4116
74.69	5.4123
74.70	5.4132
74.73	5.4139
74.74	5.4148
74.76	5.4155
74.78	5.4161
74.79	5.4167
74.80	5.4173
74.82	5.4178
74.84	5.4185
74.85	5.4190
74.88	5.4196
74.89	5.4201
74.91	5.4204
74.92	5.4209
74.94	5.4216
74.96	5.4220
74.98	5.4226
74.99	5.4234
75.00	5.4241
75.02	5.4250
75.04	5.4257
75.05	5.4263
75.07	5.4267
75.09	5.4273
75.10	5.4279
75.13	5.4285
75.14	5.4293
75.16	5.4298
75.17	5.4305
75.19	5.4310
75.20	5.4317
75.22	5.4323
75.24	5.4328
75.25	5.4332
75.28	5.4336
75.29	5.4343
75.31	5.4347
75.33	5.4353
75.34	5.4360
75.35	5.4369
75.37	5.4377
75.39	5.4383
75.40	5.4391
75.42	5.4399
75.43	5.4402
75.45	5.4406
75.47	5.4413
75.49	5.4419
75.50	5.4425
75.52	5.4431
75.54	5.4437
75.55	5.4442
75.57	5.4448
75.59	5.4455
75.61	5.4458
75.63	5.4465
75.64	5.4472
75.65	5.4478
75.67	5.4487
75.69	5.4492
75.70	5.4500
75.72	5.4506
75.73	5.4514
75.75	5.4520
75.77	5.4526
75.79	5.4534
75.81	5.4538
75.83	5.4545
75.84	5.4552
75.86	5.4558
75.88	5.4563
75.89	5.4568
75.90	5.4573
75.92	5.4580
75.93	5.4586
75.95	5.4592
75.98	5.4600
75.99	5.4607
76.00	5.4614
76.02	5.4623
76.03	5.4630
76.05	5.4637
76.07	5.4643
76.09	5.4649
76.10	5.4654
76.12	5.4660
76.14	5.4668
76.15	5.4673
76.17	5.4679
76.19	5.4686
76.20	5.4691
76.22	5.4698
76.24	5.4705
76.25	5.4711
76.27	5.4716
76.29	5.4723
76.30	5.4730
76.32	5.4738
76.34	5.4748
76.35	5.4756
76.37	5.4763
76.39	5.4770
76.40	5.4775
76.42	5.4782
76.44	5.4787
76.45	5.4790
76.47	5.4795
76.49	5.4802
76.50	5.4808
76.52	5.4815
76.53	5.4822
76.55	5.4829
76.57	5.4833
76.59	5.4840
76.60	5.4846
76.62	5.4855
76.63	5.4861
76.65	5.4870
76.67	5.4875
76.69	5.4884
76.70	5.4891
76.72	5.4897
76.74	5.4904
76.75	5.4908
76.77	5.4915
76.78	5.4920
76.80	5.4925
76.82	5.4931
76.84	5.4938
76.85	5.4943
76.87	5.4947
76.88	5.4951
76.90	5.4955
76.92	5.4962
76.93	5.4964
76.95	5.4971
76.97	5.4976
76.98	5.4984
77.00	5.4991
77.02	5.4996
77.03	5.5004
77.05	5.5012
77.07	5.5017
77.08	5.5023
77.10	5.5029
77.11	5.5034
77.13	5.5038
77.15	5.5045
77.17	5.5049
77.18	5.5055
77.21	5.5060
77.22	5.5067
77.24	5.5070
77.25	5.5075
77.27	5.5081
77.28	5.5087
77.30	5.5093
77.32	5.5099
77.34	5.5106
77.35	5.5109
77.37	5.5117
77.39	5.5123
77.40	5.5129
77.42	5.5136
77.44	5.5141
77.45	5.5147
77.47	5.5153
77.48	5.5158
77.50	5.5163
77.52	5.5171
77.53	5.5177
77.55	5.5180
77.57	5.5187
77.58	5.5192
77.60	5.5198
77.61	5.5205
77.63	5.5214
77.65	5.5221
77.67	5.5229
77.68	5.5237
77.70	5.5243
77.71	5.5252
77.73	5.5258
77.75	5.5264
77.77	5.5271
77.78	5.5278
77.80	5.5283
77.82	5.5288
77.83	5.5297
77.85	5.5302
77.87	5.5309
77.88	5.5316
77.89	5.5321
77.92	5.5327
77.94	5.5335
77.95	5.5342
77.96	5.5349
77.98	5.5357
78.00	5.5362
78.02	5.5368
78.04	5.5377
78.05	5.5383
78.07	5.5390
78.08	5.5395
78.10	5.5402
78.12	5.5408
78.13	5.5414
78.14	5.5419
78.17	5.5426
78.18	5.5434
78.20	5.5439
78.21	5.5445
78.23	5.5454
78.25	5.5458
78.26	5.5466
78.28	5.5474
78.30	5.5481
78.32	5.5489
78.34	5.5494
78.35	5.5502
78.36	5.5509
78.38	5.5517
78.40	5.5522
78.42	5.5528
78.43	5.5535
78.45	5.5540
78.47	5.5546
78.48	5.5551
78.50	5.5557
78.51	5.5565
78.53	5.5572
78.55	5.5577
78.57	5.5583
78.58	5.5590
78.59	5.5598
78.61	5.5605
78.63	5.5612
78.64	5.5620
78.66	5.5628
78.68	5.5633
78.70	5.5640
78.72	5.5648
78.73	5.5655
78.75	5.5662
78.77	5.5669
78.78	5.5675
78.80	5.5679
78.81	5.5685
78.83	5.5692
78.84	5.5698
78.86	5.5703
78.88	5.5709
78.89	5.5716
78.91	5.5720
78.92	5.5727
78.95	5.5734
78.96	5.5741
78.98	5.5742
79.00	5.5750
79.02	5.5758
79.03	5.5765
79.05	5.5771
79.06	5.5778
79.08	5.5782
79.09	5.5787
79.11	5.5795
79.13	5.5801
79.15	5.5804
79.17	5.5810
79.18	5.5814
79.20	5.5820
79.21	5.5825
79.23	5.5831
79.25	5.5835
79.27	5.5843
79.28	5.5850
79.30	5.5856
79.31	5.5865
79.33	5.5874
79.34	5.5880
79.36	5.5885
79.38	5.5891
79.40	5.5899
79.41	5.5905
79.42	5.5910
79.45	5.5914
79.46	5.5921
79.48	5.5924
79.50	5.5930
79.52	5.5936
79.53	5.5941
79.55	5.5947
79.57	5.5954
79.58	5.5959
79.59	5.5968
79.61	5.5975
79.63	5.5980
79.64	5.5989
79.66	5.5997
79.68	5.6002
79.70	5.6009
79.71	5.6016
79.73	5.6019
79.75	5.6026
79.76	5.6032
79.78	5.6035
79.80	5.6042
79.81	5.6047
79.83	5.6052
79.84	5.6058
79.86	5.6064
79.88	5.6069
79.89	5.6076
79.91	5.6084
79.93	5.6091
79.95	5.6095
79.96	5.6102
79.98	5.6108
79.99	5.6117
80.01	5.6123
80.03	5.6129
80.05	5.6136
80.06	5.6141
80.08	5.6147
80.09	5.6154
80.11	5.6159
80.13	5.6163
80.14	5.6170
80.16	5.6178
80.18	5.6183
80.20	5.6189
80.22	5.6196
80.23	5.6202
80.24	5.6209
80.26	5.6218
80.28	5.6224
80.30	5.6231
80.31	5.6240
80.33	5.6248
80.34	5.6255
80.36	5.6263
80.38	5.6267
80.39	5.6273
80.41	5.6281
80.42	5.6286
80.44	5.6291
80.46	5.6296
80.48	5.6303
80.50	5.6309
80.51	5.6317
80.53	5.6327
80.54	5.6335
80.56	5.6342
80.58	5.6350
80.59	5.6357
80.61	5.6365
80.63	5.6370
80.64	5.6379
80.66	5.6387
80.67	5.6395
80.69	5.6402
80.71	5.6410
80.73	5.6417
80.74	5.6422
80.75	5.6427
80.77	5.6434
80.79	5.6443
80.81	5.6450
80.82	5.6457
80.84	5.6464
80.86	5.6474
80.88	5.6482
80.89	5.6488
80.91	5.6497
80.92	5.6501
80.94	5.6509
80.96	5.6519
80.98	5.6523
80.99	5.6530
81.01	5.6536
81.03	5.6542
81.04	5.6549
81.05	5.6557
81.08	5.6563
81.09	5.6573
81.11	5.6580
81.13	5.6587
81.14	5.6593
81.16	5.6600
81.17	5.6606
81.19	5.6614
81.20	5.6621
81.22	5.6628
81.24	5.6634
81.25	5.6641
81.28	5.6646
81.29	5.6654
81.31	5.6662
81.32	5.6670
81.34	5.6675
81.35	5.6683
81.37	5.6691
81.39	5.6699
81.40	5.6705
81.42	5.6712
81.44	5.6718
81.45	5.6725
81.47	5.6731
81.49	5.6738
81.51	5.6744
81.53	5.6746
81.54	5.6754
81.56	5.6761
81.58	5.6768
81.59	5.6775
81.61	5.6781
81.63	5.6787
81.64	5.6794
81.65	5.6801
81.67	5.6805
81.69	5.6811
81.71	5.6817
81.72	5.6823
81.74	5.6829
81.75	5.6834
81.77	5.6838
81.79	5.6844
81.80	5.6852
81.82	5.6860
81.84	5.6868
81.85	5.6873
81.87	5.6879
81.89	5.6884
81.90	5.6892
81.92	5.6897
81.93	5.6902
81.95	5.6907
81.97	5.6913
81.99	5.6918
82.00	5.6922
82.02	5.6928
82.04	5.6934
82.05	5.6939
82.07	5.6947
82.09	5.6952
82.10	5.6959
82.12	5.6966
82.14	5.6974
82.15	5.6979
82.17	5.6985
82.18	5.6990
82.20	5.6996
82.22	5.7001
82.23	5.7005
82.25	5.7010
82.27	5.7014
82.28	5.7017
82.30	5.7024
82.32	5.7030
82.33	5.7038
82.34	5.7045
82.36	5.7051
82.38	5.7055
82.40	5.7061
82.42	5.7066
82.44	5.7071
82.45	5.7077
82.47	5.7082
82.48	5.7085
82.50	5.7090
82.52	5.7095
82.53	5.7098
82.55	5.7107
82.57	5.7113
82.58	5.7119
82.60	5.7125
82.62	5.7132
82.63	5.7137
82.64	5.7142
82.67	5.7148
82.68	5.7155
82.70	5.7160
82.72	5.7165
82.74	5.7170
82.75	5.7176
82.77	5.7180
82.78	5.7184
82.80	5.7190
82.82	5.7196
82.83	5.7206
82.85	5.7212
82.87	5.7217
82.88	5.7225
82.90	5.7231
82.92	5.7235
82.93	5.7240
82.95	5.7246
82.97	5.7251
82.98	5.7257
83.00	5.7262
83.02	5.7268
83.03	5.7274
83.05	5.7279
83.07	5.7285
83.08	5.7290
83.09	5.7297
83.11	5.7304
83.13	5.7312
83.14	5.7318
83.16	5.7324
83.18	5.7332
83.20	5.7337
83.22	5.7343
83.23	5.7348
83.25	5.7354
83.26	5.7358
83.28	5.7364
83.30	5.7369
83.31	5.7375
83.33	5.7382
83.35	5.7390
83.36	5.7397
83.38	5.7402
83.39	5.7409
83.41	5.7416
83.42	5.7421
83.44	5.7429
83.46	5.7435
83.48	5.7440
83.50	5.7447
83.51	5.7452
83.53	5.7458
83.55	5.7464
83.56	5.7469
83.58	5.7476
83.60	5.7483
83.62	5.7490
83.63	5.7496
83.65	5.7502
83.66	5.7509
83.68	5.7516
83.69	5.7524
83.71	5.7530
83.73	5.7534
83.75	5.7542
83.76	5.7546
83.78	5.7552
83.80	5.7559
83.81	5.7567
83.83	5.7574
83.84	5.7582
83.86	5.7589
83.88	5.7597
83.89	5.7604
83.91	5.7609
83.92	5.7618
83.94	5.7623
83.96	5.7629
83.98	5.7635
83.99	5.7643
84.01	5.7649
84.03	5.7653
84.05	5.7657
84.06	5.7663
84.08	5.7670
84.09	5.7676
84.11	5.7685
84.13	5.7691
84.14	5.7697
84.16	5.7705
84.17	5.7713
84.20	5.7720
84.21	5.7727
84.23	5.7733
84.24	5.7738
84.26	5.7744
84.28	5.7751
84.30	5.7756
84.31	5.7761
84.33	5.7768
84.34	5.7773
84.35	5.7781
84.37	5.7789
84.39	5.7796
84.41	5.7804
84.42	5.7809
84.44	5.7815
84.45	5.7823
84.48	5.7829
84.50	5.7836
84.51	5.7842
84.53	5.7849
84.54	5.7855
84.56	5.7860
84.58	5.7864
84.59	5.7871
84.61	5.7879
84.63	5.7886
84.64	5.7894
84.66	5.7902
84.67	5.7910
84.69	5.7916
84.70	5.7925
84.73	5.7932
84.74	5.7938
84.76	5.7944
84.78	5.7950
84.79	5.7956
84.81	5.7962
84.83	5.7968
84.84	5.7974
84.86	5.7984
84.88	5.7993
84.89	5.8003
84.90	5.8009
84.92	5.8018
84.93	5.8025
84.95	5.8032
84.97	5.8039
84.99	5.8047
85.00	5.8053
85.03	5.8061
85.04	5.8067
85.05	5.8074
85.07	5.8079
85.09	5.8086
85.11	5.8092
85.12	5.8099
85.14	5.8105
85.15	5.8114
85.17	5.8121
85.18	5.8129
85.20	5.8137
85.22	5.8144
85.24	5.8147
85.26	5.8156
85.28	5.8161
85.29	5.8168
85.30	5.8175
85.32	5.8180
85.34	5.8187
85.35	5.8193
85.37	5.8201
85.39	5.8209
85.40	5.8216
85.42	5.8220
85.44	5.8226
85.45	5.8233
85.47	5.8240
85.48	5.8245
85.50	5.8250
85.52	5.8256
85.53	5.8260
85.55	5.8267
85.57	5.8271
85.59	5.8276
85.60	5.8281
85.62	5.8287
85.64	5.8294
85.65	5.8302
85.67	5.8310
85.69	5.8315
85.70	5.8320
85.72	5.8326
85.74	5.8331
85.75	5.8337
85.77	5.8343
85.78	5.8349
85.80	5.8355
85.82	5.8361
85.83	5.8367
85.85	5.8372
85.87	5.8378
85.88	5.8383
85.90	5.8394
85.92	5.8400
85.93	5.8406
85.95	5.8414
85.97	5.8422
85.98	5.8429
86.00	5.8436
86.01	5.8442
86.03	5.8447
86.05	5.8454
86.07	5.8458
86.08	5.8463
86.10	5.8468
86.12	5.8475
86.13	5.8481
86.15	5.8488
86.17	5.8496
86.18	5.8503
86.20	5.8512
86.22	5.8518
86.23	5.8524
86.25	5.8530
86.26	5.8537
86.28	5.8543
86.30	5.8548
86.32	5.8555
86.34	5.8560
86.35	5.8566
86.36	5.8572
86.38	5.8578
86.40	5.8585
86.42	5.8592
86.43	5.8600
86.45	5.8607
86.46	5.8615
86.48	5.8621
86.50	5.8629
86.52	5.8634
86.53	5.8640
86.55	5.8645
86.56	5.8651
86.58	5.8658
86.59	5.8662
86.62	5.8670
86.63	5.8677
86.65	5.8684
86.66	5.8691
86.68	5.8697
86.69	5.8705
86.71	5.8713
86.73	5.8717
86.75	5.8725
86.76	5.8729
86.78	5.8734
86.80	5.8742
86.81	5.8749
86.83	5.8754
86.85	5.8762
86.86	5.8771
86.88	5.8776
86.89	5.8783
86.91	5.8792
86.93	5.8799
86.95	5.8807
86.96	5.8815
86.98	5.8822
87.00	5.8828
87.01	5.8834
87.03	5.8841
87.04	5.8845
87.06	5.8851
87.08	5.8856
87.09	5.8863
87.10	5.8870
87.12	5.8878
87.14	5.8884
87.16	5.8892
87.18	5.8899
87.20	5.8907
87.21	5.8914
87.23	5.8919
87.25	5.8923
87.26	5.8931
87.28	5.8937
87.30	5.8944
87.31	5.8950
87.33	5.8955
87.34	5.8961
87.36	5.8968
87.38	5.8973
87.39	5.8980
87.41	5.8987
87.42	5.8994
87.44	5.9001
87.46	5.9009
87.48	5.9014
87.49	5.9020
87.51	5.9025
87.53	5.9030
87.54	5.9038
87.56	5.9044
87.58	5.9049
87.59	5.9053
87.61	5.9060
87.63	5.9067
87.64	5.9075
87.66	5.9081
87.67	5.9089
87.69	5.9095
87.71	5.9103
87.73	5.9109
87.74	5.9115
87.75	5.9123
87.77	5.9127
87.79	5.9135
87.81	5.9141
87.83	5.9145
87.84	5.9153
87.86	5.9158
87.88	5.9163
87.89	5.9169
87.90	5.9177
87.92	5.9185
87.94	5.9192
87.96	5.9201
87.98	5.9209
87.99	5.9217
88.00	5.9223
88.02	5.9229
88.04	5.9235
88.06	5.9243
88.08	5.9250
88.09	5.9255
88.10	5.9261
88.12	5.9265
88.14	5.9271
88.16	5.9277
88.17	5.9284
88.19	5.9293
88.21	5.9301
88.22	5.9310
88.24	5.9315
88.25	5.9324
88.28	5.9329
88.29	5.9337
88.31	5.9344
88.33	5.9350
88.34	5.9357
88.35	5.9365
88.37	5.9369
88.38	5.9375
88.40	5.9382
88.42	5.9390
88.44	5.9397
88.45	5.9404
88.47	5.9410
88.49	5.9418
88.50	5.9424
88.52	5.9429
88.54	5.9435
88.55	5.9441
88.57	5.9446
88.59	5.9452
88.60	5.9458
88.62	5.9465
88.63	5.9469
88.65	5.9475
88.67	5.9481
88.68	5.9489
88.70	5.9498
88.72	5.9504
88.73	5.9509
88.75	5.9516
88.77	5.9524
88.79	5.9529
88.80	5.9535
88.82	5.9540
88.83	5.9545
88.85	5.9551
88.87	5.9557
88.88	5.9564
88.90	5.9573
88.92	5.9579
88.93	5.9587
88.95	5.9595
88.97	5.9600
88.98	5.9607
89.00	5.9613
89.02	5.9619
89.03	5.9627
89.05	5.9633
89.06	5.9638
89.08	5.9645
89.09	5.9648
89.11	5.9654
89.13	5.9658
89.15	5.9664
89.17	5.9671
89.18	5.9678
89.20	5.9685
89.21	5.9693
89.23	5.9698
89.25	5.9706
89.27	5.9715
89.28	5.9723
89.30	5.9728
89.32	5.9736
89.33	5.9743
89.35	5.9749
89.36	5.9755
89.38	5.9761
89.39	5.9767
89.42	5.9772
89.43	5.9781
89.45	5.9789
89.47	5.9797
89.48	5.9803
89.50	5.9810
89.52	5.9816
89.53	5.9824
89.55	5.9829
89.56	5.9835
89.58	5.9839
89.59	5.9847
89.61	5.9853
89.63	5.9858
89.64	5.9866
89.66	5.9873
89.68	5.9881
89.70	5.9887
89.72	5.9894
89.73	5.9900
89.75	5.9906
89.76	5.9915
89.78	5.9923
89.80	5.9928
89.81	5.9936
89.83	5.9942
89.85	5.9948
89.86	5.9954
89.88	5.9959
89.89	5.9965
89.91	5.9971
89.93	5.9977
89.94	5.9984
89.96	5.9991
89.98	5.9998
90.00	6.0003
90.01	6.0011
90.03	6.0018
90.04	6.0023
90.06	6.0030
90.08	6.0036
90.09	6.0042
90.11	6.0049
90.13	6.0053
90.14	6.0062
90.17	6.0068
90.18	6.0076
90.20	6.0082
90.21	6.0090
90.23	6.0096
90.24	6.0102
90.25	6.0109
90.27	6.0116
90.29	6.0123
90.30	6.0128
90.33	6.0135
90.34	6.0142
90.36	6.0149
90.38	6.0155
90.39	6.0161
90.41	6.0168
90.42	6.0174
90.44	6.0182
90.45	6.0190
90.48	6.0201
90.49	6.0209
90.51	6.0215
90.53	6.0221
90.54	6.0226
90.56	6.0233
90.58	6.0239
90.59	6.0245
90.61	6.0252
90.62	6.0261
90.64	6.0266
90.65	6.0272
90.67	6.0280
90.69	6.0286
90.70	6.0295
90.72	6.0302
90.74	6.0306
90.75	6.0315
90.78	6.0324
90.79	6.0331
90.80	6.0338
90.82	6.0347
90.84	6.0353
90.86	6.0360
90.87	6.0366
90.89	6.0371
90.91	6.0377
90.92	6.0386
90.94	6.0392
90.96	6.0401
90.97	6.0409
90.99	6.0416
91.00	6.0423
91.02	6.0429
91.04	6.0435
91.06	6.0442
91.08	6.0448
91.09	6.0455
91.10	6.0461
91.12	6.0467
91.14	6.0474
91.16	6.0480
91.17	6.0485
91.19	6.0490
91.20	6.0498
91.22	6.0506
91.24	6.0514
91.25	6.0521
91.27	6.0528
91.29	6.0535
91.30	6.0542
91.32	6.0549
91.34	6.0555
91.35	6.0561
91.37	6.0569
91.38	6.0573
91.40	6.0578
91.42	6.0583
91.44	6.0590
91.45	6.0597
91.47	6.0604
91.49	6.0610
91.50	6.0619
91.52	6.0626
91.53	6.0632
91.55	6.0639
91.57	6.0647
91.58	6.0653
91.60	6.0663
91.61	6.0669
91.64	6.0674
91.65	6.0680
91.67	6.0688
91.69	6.0695
91.70	6.0702
91.72	6.0712
91.74	6.0719
91.75	6.0728
91.77	6.0735
91.79	6.0742
91.80	6.0750
91.82	6.0758
91.84	6.0764
91.85	6.0770
91.87	6.0776
91.89	6.0781
91.90	6.0788
91.92	6.0794
91.93	6.0799
91.95	6.0808
91.97	6.0814
91.99	6.0824
92.00	6.0832
92.02	6.0838
92.03	6.0844
92.05	6.0852
92.07	6.0860
92.09	6.0867
92.10	6.0873
92.12	6.0879
92.13	6.0886
92.15	6.0891
92.17	6.0898
92.18	6.0904
92.20	6.0909
92.22	6.0916
92.23	6.0923
92.25	6.0931
92.27	6.0939
92.28	6.0947
92.30	6.0954
92.32	6.0961
92.33	6.0965
92.34	6.0971
92.37	6.0977
92.38	6.0984
92.40	6.0989
92.42	6.0995
92.43	6.1003
92.45	6.1008
92.47	6.1016
92.48	6.1024
92.50	6.1031
92.52	6.1039
92.53	6.1046
92.55	6.1054
92.57	6.1061
92.58	6.1068
92.59	6.1075
92.62	6.1082
92.63	6.1087
92.65	6.1092
92.67	6.1097
92.68	6.1102
92.70	6.1107
92.71	6.1114
92.73	6.1121
92.75	6.1127
92.77	6.1135
92.78	6.1143
92.80	6.1149
92.82	6.1158
92.83	6.1162
92.85	6.1169
92.86	6.1175
92.89	6.1181
92.90	6.1186
92.91	6.1193
92.93	6.1199
92.95	6.1202
92.96	6.1209
92.98	6.1215
93.00	6.1222
93.01	6.1230
93.03	6.1234
93.05	6.1241
93.07	6.1247
93.08	6.1252
93.09	6.1258
93.12	6.1266
93.13	6.1270
93.14	6.1275
93.16	6.1281
93.18	6.1284
93.20	6.1288
93.21	6.1293
93.23	6.1301
93.25	6.1305
93.26	6.1314
93.28	6.1321
93.30	6.1328
93.32	6.1333
93.33	6.1338
93.34	6.1344
93.36	6.1350
93.37	6.1355
93.39	6.1361
93.41	6.1368
93.43	6.1374
93.45	6.1380
93.46	6.1387
93.48	6.1393
93.50	6.1401
93.51	6.1409
93.53	6.1416
93.55	6.1425
93.57	6.1431
93.58	6.1440
93.59	6.1448
93.62	6.1455
93.63	6.1460
93.64	6.1467
93.66	6.1474
93.68	6.1477
93.70	6.1483
93.71	6.1489
93.73	6.1494
93.74	6.1503
93.76	6.1513
93.78	6.1521
93.79	6.1531
93.81	6.1539
93.83	6.1546
93.84	6.1552
93.86	6.1560
93.88	6.1565
93.89	6.1572
93.91	6.1580
93.93	6.1587
93.95	6.1594
93.96	6.1601
93.98	6.1608
93.99	6.1615
94.01	6.1622
94.03	6.1631
94.05	6.1638
94.06	6.1647
94.08	6.1654
94.09	6.1660
94.11	6.1669
94.13	6.1676
94.14	6.1681
94.16	6.1684
94.18	6.1691
94.19	6.1697
94.20	6.1703
94.23	6.1710
94.25	6.1719
94.26	6.1727
94.28	6.1736
94.29	6.1745
94.31	6.1753
94.33	6.1762
94.34	6.1769
94.36	6.1775
94.38	6.1782
94.39	6.1789
94.41	6.1794
94.42	6.1800
94.44	6.1806
94.46	6.1812
94.48	6.1819
94.49	6.1826
94.51	6.1833
94.53	6.1841
94.54	6.1849
94.56	6.1857
94.58	6.1864
94.59	6.1870
94.61	6.1877
94.63	6.1885
94.64	6.1892
94.66	6.1899
94.67	6.1905
94.69	6.1912
94.71	6.1918
94.73	6.1924
94.75	6.1934
94.76	6.1942
94.78	6.1951
94.79	6.1958
94.81	6.1966
94.82	6.1972
94.84	6.1982
94.85	6.1986
94.87	6.1995
94.89	6.2000
94.91	6.2007
94.92	6.2016
94.94	6.2022
94.95	6.2027
94.97	6.2032
94.99	6.2040
95.00	6.2044
95.03	6.2052
95.04	6.2058
95.06	6.2064
95.08	6.2070
95.09	6.2078
95.11	6.2084
95.13	6.2092
95.14	6.2101
95.16	6.2107
95.17	6.2111
95.19	6.2118
95.20	6.2122
95.22	6.2130
95.24	6.2138
95.25	6.2144
95.27	6.2154
95.29	6.2161
95.30	6.2166
95.32	6.2175
95.34	6.2181
95.35	6.2186
95.37	6.2191
95.39	6.2196
95.40	6.2201
95.42	6.2208
95.44	6.2215
95.45	6.2220
95.47	6.2227
95.49	6.2235
95.50	6.2243
95.52	6.2252
95.54	6.2261
95.55	6.2268
95.57	6.2276
95.59	6.2283
95.60	6.2289
95.62	6.2297
95.63	6.2303
95.65	6.2310
95.67	6.2317
95.69	6.2323
95.71	6.2330
95.73	6.2336
95.74	6.2344
95.75	6.2351
95.77	6.2358
95.78	6.2367
95.80	6.2375
95.82	6.2383
95.83	6.2389
95.85	6.2398
95.87	6.2405
95.89	6.2411
95.90	6.2418
95.92	6.2423
95.94	6.2430
95.95	6.2437
95.97	6.2441
95.99	6.2448
96.00	6.2455
96.02	6.2464
96.03	6.2471
96.05	6.2479
96.07	6.2487
96.09	6.2493
96.10	6.2501
96.12	6.2508
96.14	6.2513
96.15	6.2520
96.17	6.2527
96.18	6.2534
96.20	6.2540
96.22	6.2546
96.23	6.2553
96.25	6.2559
96.27	6.2568
96.28	6.2576
96.30	6.2584
96.32	6.2592
96.33	6.2598
96.35	6.2603
96.37	6.2611
96.39	6.2616
96.40	6.2623
96.42	6.2630
96.44	6.2637
96.45	6.2644
96.47	6.2650
96.49	6.2656
96.50	6.2661
96.52	6.2667
96.53	6.2675
96.55	6.2681
96.57	6.2689
96.58	6.2698
96.60	6.2705
96.62	6.2711
96.63	6.2720
96.65	6.2725
96.67	6.2731
96.69	6.2735
96.70	6.2739
96.71	6.2742
96.73	6.2748
96.75	6.2754
96.76	6.2761
96.78	6.2767
96.80	6.2774
96.82	6.2781
96.83	6.2789
96.85	6.2795
96.87	6.2800
96.88	6.2807
96.90	6.2815
96.91	6.2821
96.93	6.2827
96.95	6.2833
96.97	6.2840
96.98	6.2849
97.00	6.2856
97.02	6.2865
97.03	6.2872
97.05	6.2879
97.07	6.2887
97.08	6.2895
97.10	6.2900
97.12	6.2910
97.13	6.2917
97.15	6.2925
97.17	6.2934
97.18	6.2943
97.20	6.2951
97.22	6.2957
97.24	6.2967
97.25	6.2975
97.27	6.2984
97.28	6.2991
97.30	6.2998
97.31	6.3008
97.33	6.3016
97.35	6.3024
97.37	6.3033
97.38	6.3042
97.39	6.3049
97.42	6.3057
97.43	6.3067
97.45	6.3074
97.47	6.3083
97.49	6.3090
97.50	6.3099
97.52	6.3106
97.53	6.3117
97.55	6.3125
97.56	6.3134
97.58	6.3142
97.59	6.3152
97.62	6.3161
97.63	6.3169
97.64	6.3176
97.66	6.3182
97.68	6.3190
97.70	6.3195
97.72	6.3202
97.73	6.3210
97.75	6.3216
97.77	6.3224
97.78	6.3234
97.80	6.3241
97.81	6.3249
97.83	6.3256
97.85	6.3265
97.87	6.3270
97.88	6.3276
97.90	6.3283
97.92	6.3291
97.93	6.3299
97.95	6.3304
97.97	6.3311
97.98	6.3317
98.00	6.3324
98.02	6.3331
98.03	6.3338
98.05	6.3347
98.07	6.3354
98.08	6.3361
98.09	6.3369
98.11	6.3375
98.13	6.3383
98.14	6.3391
98.16	6.3398
98.18	6.3402
98.20	6.3408
98.21	6.3413
98.23	6.3420
98.25	6.3425
98.26	6.3430
98.28	6.3437
98.30	6.3445
98.31	6.3451
98.33	6.3459
98.34	6.3467
98.36	6.3475
98.38	6.3484
98.39	6.3491
98.41	6.3499
98.43	6.3507
98.45	6.3513
98.46	6.3522
98.48	6.3529
98.50	6.3534
98.51	6.3540
98.53	6.3549
98.54	6.3557
98.56	6.3564
98.58	6.3571
98.59	6.3579
98.61	6.3586
98.63	6.3594
98.64	6.3600
98.66	6.3606
98.67	6.3612
98.70	6.3617
98.71	6.3623
98.73	6.3629
98.75	6.3637
98.76	6.3643
98.78	6.3652
98.80	6.3660
98.82	6.3668
98.83	6.3678
98.84	6.3684
98.86	6.3691
98.88	6.3700
98.89	6.3705
98.91	6.3713
98.93	6.3719
98.95	6.3725
98.97	6.3733
98.98	6.3739
99.00	6.3744
99.01	6.3750
99.03	6.3758
99.05	6.3762
99.06	6.3770
99.08	6.3779
99.09	6.3785
99.11	6.3794
99.13	6.3803
99.14	6.3807
99.16	6.3815
99.17	6.3822
99.19	6.3828
99.21	6.3835
99.23	6.3839
99.24	6.3846
99.26	6.3852
99.28	6.3860
99.29	6.3868
99.31	6.3874
99.33	6.3881
99.34	6.3887
99.36	6.3895
99.38	6.3901
99.39	6.3906
99.41	6.3912
99.43	6.3918
99.44	6.3925
99.46	6.3931
99.48	6.3937
99.50	6.3943
99.51	6.3949
99.53	6.3955
99.55	6.3961
99.56	6.3969
99.58	6.3977
99.59	6.3987
99.61	6.3995
99.63	6.4002
99.64	6.4008
99.66	6.4015
99.67	6.4021
99.69	6.4026
99.70	6.4034
99.73	6.4040
99.74	6.4046
99.76	6.4051
99.78	6.4057
99.79	6.4066
99.81	6.4072
99.83	6.4081
99.84	6.4090
99.85	6.4098
99.88	6.4106
99.89	6.4113
99.91	6.4120
99.92	6.4124
99.94	6.4132
99.95	6.4139
99.98	6.4145
100.00	6.4152
100.01	6.4157
100.03	6.4164
100.04	6.4171
100.06	6.4179
100.08	6.4185
100.09	6.4193
100.11	6.4201
100.13	6.4207
100.15	6.4215
100.16	6.4220
100.18	6.4227
100.19	6.4233
100.20	6.4240
100.22	6.4244
100.24	6.4253
100.26	6.4261
100.28	6.4268
100.29	6.4276
100.31	6.4285
100.32	6.4294
100.34	6.4303
100.35	6.4312
100.38	6.4319
100.39	6.4327
100.40	6.4336
100.42	6.4342
100.44	6.4350
100.46	6.4358
100.47	6.4366
100.49	6.4372
100.51	6.4378
100.52	6.4383
100.54	6.4391
100.56	6.4399
100.58	6.4410
100.59	6.4420
100.60	6.4429
100.62	6.4435
100.64	6.4442
100.65	6.4450
100.67	6.4456
100.69	6.4461
100.71	6.4467
100.72	6.4472
100.74	6.4478
100.75	6.4484
100.77	6.4490
100.79	6.4497
100.81	6.4506
100.82	6.4511
100.84	6.4521
100.85	6.4525
100.87	6.4532
100.89	6.4538
100.90	6.4545
100.93	6.4552
100.94	6.4558
100.95	6.4563
100.97	6.4568
100.98	6.4576
101.00	6.4582
101.02	6.4586
101.04	6.4592
101.05	6.4598
101.07	6.4605
101.09	6.4613
101.10	6.4620
101.12	6.4628
101.14	6.4635
101.15	6.4641
101.17	6.4646
101.19	6.4652
101.20	6.4658
101.22	6.4664
101.24	6.4669
101.25	6.4675
101.27	6.4681
101.29	6.4688
101.30	6.4694
101.32	6.4703
101.33	6.4709
101.35	6.4717
101.37	6.4722
101.38	6.4731
101.40	6.4737
101.42	6.4744
101.44	6.4753
101.45	6.4759
101.47	6.4767
101.48	6.4774
101.50	6.4780
101.52	6.4786
101.53	6.4794
101.55	6.4801
101.57	6.4809
101.59	6.4819
101.60	6.4827
101.62	6.4835
101.64	6.4841
101.65	6.4849
101.67	6.4856
101.69	6.4863
101.70	6.4870
101.72	6.4875
101.73	6.4884
101.75	6.4889
101.77	6.4895
101.78	6.4903
101.80	6.4910
101.82	6.4919
101.84	6.4928
101.85	6.4937
101.87	6.4942
101.88	6.4949
101.90	6.4957
101.92	6.4964
101.93	6.4972
101.95	6.4980
101.97	6.4988
101.98	6.4995
102.00	6.5001
102.01	6.5007
102.03	6.5014
102.05	6.5020
102.07	6.5028
102.09	6.5036
102.10	6.5045
102.12	6.5053
102.13	6.5062
102.15	6.5069
102.17	6.5075
102.19	6.5085
102.20	6.5093
102.22	6.5098
102.24	6.5107
102.25	6.5114
102.27	6.5121
102.29	6.5129
102.30	6.5136
102.32	6.5144
102.33	6.5155
102.35	6.5164
102.37	6.5173
102.39	6.5179
102.40	6.5188
102.42	6.5196
102.43	6.5203
102.45	6.5212
102.47	6.5218
102.49	6.5225
102.50	6.5232
102.51	6.5236
102.53	6.5243
102.55	6.5253
102.57	6.5260
102.58	6.5268
102.60	6.5276
102.62	6.5284
102.63	6.5294
102.65	6.5300
102.67	6.5306
102.68	6.5312
102.70	6.5317
102.72	6.5323
102.74	6.5329
102.75	6.5334
102.77	6.5340
102.78	6.5346
102.80	6.5354
102.82	6.5361
102.83	6.5369
102.85	6.5377
102.86	6.5383
102.88	6.5390
102.90	6.5398
102.92	6.5406
102.93	6.5414
102.95	6.5420
102.96	6.5426
102.98	6.5433
103.00	6.5439
103.02	6.5445
103.03	6.5452
103.05	6.5459
103.06	6.5466
103.08	6.5476
103.10	6.5484
103.11	6.5493
103.13	6.5501
103.15	6.5508
103.17	6.5513
103.18	6.5519
103.20	6.5526
103.22	6.5532
103.23	6.5540
103.25	6.5546
103.27	6.5554
103.28	6.5558
103.30	6.5565
103.31	6.5572
103.33	6.5580
103.35	6.5588
103.37	6.5596
103.38	6.5604
103.40	6.5612
103.41	6.5618
103.43	6.5625
103.45	6.5632
103.46	6.5639
103.48	6.5647
103.50	6.5654
103.51	6.5662
103.53	6.5668
103.55	6.5676
103.57	6.5683
103.58	6.5691
103.60	6.5701
103.62	6.5710
103.64	6.5718
103.65	6.5727
103.67	6.5732
103.68	6.5739
103.69	6.5746
103.71	6.5752
103.72	6.5760
103.72	6.5768
103.73	6.5773
103.77	6.5779
103.80	6.5788
103.81	6.5795
103.83	6.5803
103.85	6.5811
103.86	6.5819
103.88	6.5827
103.90	6.5835
103.91	6.5842
103.93	6.5847
103.95	6.5854
103.97	6.5862
103.98	6.5869
104.00	6.5875
104.01	6.5879
104.03	6.5887
104.05	6.5893
104.07	6.5902
104.08	6.5912
104.09	6.5919
104.11	6.5926
104.13	6.5934
104.15	6.5943
104.16	6.5950
104.18	6.5955
104.20	6.5962
104.21	6.5969
104.23	6.5977
104.25	6.5986
104.26	6.5991
104.28	6.5998
104.30	6.6002
104.31	6.6009
104.33	6.6017
104.35	6.6021
104.37	6.6027
104.38	6.6036
104.40	6.6043
104.41	6.6050
104.43	6.6057
104.45	6.6066
104.46	6.6073
104.48	6.6081
104.49	6.6086
104.51	6.6093
104.53	6.6099
104.55	6.6105
104.57	6.6114
104.58	6.6123
104.60	6.6131
104.61	6.6137
104.63	6.6143
104.65	6.6149
104.66	6.6156
104.68	6.6165
104.70	6.6172
104.71	6.6178
104.73	6.6185
104.75	6.6191
104.76	6.6198
104.78	6.6205
104.79	6.6212
104.81	6.6218
104.83	6.6227
104.85	6.6235
104.87	6.6244
104.88	6.6252
104.90	6.6259
104.91	6.6268
104.93	6.6276
104.94	6.6284
104.96	6.6294
104.98	6.6302
104.99	6.6307
105.01	6.6313
105.03	6.6319
105.04	6.6328
105.06	6.6336
105.08	6.6344
105.09	6.6352
105.11	6.6359
105.13	6.6370
105.14	6.6378
105.16	6.6386
105.18	6.6392
105.20	6.6399
105.21	6.6408
105.23	6.6416
105.24	6.6422
105.25	6.6431
105.28	6.6438
105.29	6.6444
105.31	6.6453
105.33	6.6460
105.35	6.6468
105.36	6.6475
105.38	6.6483
105.39	6.6489
105.41	6.6496
105.43	6.6504
105.44	6.6511
105.46	6.6517
105.48	6.6527
105.49	6.6532
105.51	6.6539
105.53	6.6546
105.54	6.6553
105.56	6.6562
105.58	6.6571
105.59	6.6577
105.61	6.6586
105.63	6.6595
105.64	6.6599
105.66	6.6606
105.68	6.6611
105.69	6.6619
105.71	6.6626
105.73	6.6633
105.74	6.6640
105.75	6.6647
105.77	6.6654
105.79	6.6659
105.81	6.6667
105.83	6.6674
105.84	6.6680
105.86	6.6688
105.88	6.6693
105.89	6.6701
105.91	6.6708
105.93	6.6716
105.94	6.6724
105.96	6.6730
105.97	6.6737
105.99	6.6744
106.00	6.6750
106.02	6.6756
106.04	6.6764
106.06	6.6771
106.08	6.6778
106.09	6.6787
106.10	6.6794
106.12	6.6802
106.14	6.6809
106.15	6.6817
106.17	6.6823
106.19	6.6830
106.21	6.6838
106.23	6.6845
106.24	6.6850
106.25	6.6857
106.27	6.6864
106.29	6.6870
106.30	6.6877
106.33	6.6885
106.34	6.6894
106.35	6.6901
106.37	6.6909
106.39	6.6917
106.40	6.6924
106.42	6.6932
106.44	6.6937
106.45	6.6946
106.47	6.6952
106.49	6.6959
106.50	6.6965
106.52	6.6971
106.54	6.6978
106.55	6.6986
106.57	6.6995
106.59	6.7003
106.60	6.7014
106.62	6.7022
106.64	6.7030
106.65	6.7037
106.67	6.7045
106.69	6.7052
106.70	6.7061
106.72	6.7068
106.74	6.7075
106.75	6.7082
106.77	6.7089
106.79	6.7096
106.80	6.7102
106.83	6.7108
106.84	6.7114
106.85	6.7123
106.87	6.7132
106.89	6.7140
106.90	6.7148
106.92	6.7156
106.93	6.7162
106.95	6.7169
106.97	6.7176
106.99	6.7181
107.00	6.7190
107.02	6.7196
107.03	6.7202
107.05	6.7209
107.07	6.7218
107.09	6.7227
107.10	6.7235
107.12	6.7242
107.13	6.7248
107.15	6.7255
107.17	6.7261
107.18	6.7265
107.20	6.7273
107.22	6.7279
107.23	6.7285
107.25	6.7292
107.27	6.7298
107.28	6.7307
107.30	6.7315
107.32	6.7321
107.33	6.7328
107.35	6.7335
107.36	6.7340
107.38	6.7347
107.40	6.7355
107.42	6.7362
107.43	6.7370
107.45	6.7376
107.47	6.7383
107.48	6.7388
107.50	6.7393
107.52	6.7399
107.54	6.7404
107.55	6.7412
107.57	6.7419
107.58	6.7426
107.60	6.7435
107.62	6.7442
107.63	6.7449
107.65	6.7455
107.67	6.7462
107.68	6.7469
107.70	6.7476
107.72	6.7483
107.73	6.7489
107.75	6.7496
107.77	6.7502
107.78	6.7509
107.80	6.7516
107.82	6.7526
107.83	6.7530
107.85	6.7539
107.87	6.7549
107.88	6.7554
107.90	6.7560
107.92	6.7568
107.94	6.7573
107.95	6.7580
107.96	6.7587
107.98	6.7594
108.00	6.7603
108.01	6.7608
108.03	6.7614
108.05	6.7619
108.07	6.7627
108.09	6.7635
108.10	6.7642
108.12	6.7650
108.13	6.7657
108.15	6.7663
108.17	6.7670
108.18	6.7675
108.20	6.7683
108.21	6.7689
108.23	6.7697
108.25	6.7703
108.26	6.7709
108.28	6.7713
108.30	6.7722
108.32	6.7729
108.33	6.7735
108.35	6.7744
108.37	6.7752
108.38	6.7759
108.40	6.7769
108.41	6.7780
108.43	6.7786
108.45	6.7793
108.46	6.7801
108.48	6.7807
108.50	6.7813
108.52	6.7821
108.53	6.7826
108.55	6.7832
108.57	6.7841
108.58	6.7849
108.60	6.7857
108.61	6.7864
108.63	6.7871
108.65	6.7878
108.66	6.7885
108.68	6.7892
108.70	6.7899
108.71	6.7905
108.73	6.7911
108.75	6.7918
108.76	6.7924
108.78	6.7932
108.80	6.7939
108.81	6.7946
108.83	6.7955
108.85	6.7963
108.86	6.7969
108.88	6.7976
108.90	6.7983
108.91	6.7989
108.93	6.7996
108.95	6.8003
108.96	6.8010
108.98	6.8016
109.00	6.8021
109.01	6.8027
109.03	6.8031
109.04	6.8036
109.06	6.8044
109.08	6.8051
109.09	6.8059
109.11	6.8066
109.13	6.8073
109.14	6.8080
109.16	6.8087
109.18	6.8095
109.19	6.8102
109.21	6.8110
109.23	6.8117
109.25	6.8125
109.26	6.8131
109.28	6.8135
109.30	6.8142
109.31	6.8149
109.33	6.8156
109.35	6.8164
109.36	6.8168
109.38	6.8176
109.40	6.8186
109.41	6.8192
109.43	6.8199
109.45	6.8207
109.46	6.8213
109.48	6.8221
109.50	6.8228
109.51	6.8233
109.53	6.8239
109.55	6.8245
109.56	6.8254
109.58	6.8262
109.60	6.8271
109.61	6.8280
109.63	6.8286
109.65	6.8293
109.66	6.8300
109.68	6.8305
109.70	6.8312
109.72	6.8318
109.73	6.8325
109.75	6.8332
109.76	6.8340
109.78	6.8347
109.80	6.8355
109.81	6.8361
109.83	6.8366
109.85	6.8372
109.86	6.8379
109.88	6.8387
109.90	6.8395
109.91	6.8404
109.93	6.8411
109.94	6.8418
109.96	6.8424
109.98	6.8429
110.00	6.8434
110.02	6.8438
110.03	6.8444
110.05	6.8448
110.06	6.8453
110.08	6.8461
110.10	6.8468
110.11	6.8475
110.13	6.8481
110.14	6.8488
110.16	6.8495
110.18	6.8502
110.19	6.8510
110.21	6.8514
110.23	6.8520
110.24	6.8526
110.26	6.8532
110.28	6.8538
110.29	6.8545
110.31	6.8550
110.33	6.8558
110.34	6.8565
110.36	6.8571
110.38	6.8578
110.39	6.8584
110.41	6.8589
110.43	6.8596
110.45	6.8602
110.46	6.8608
110.48	6.8616
110.49	6.8623
110.51	6.8628
110.53	6.8635
110.55	6.8639
110.56	6.8645
110.58	6.8653
110.60	6.8659
110.61	6.8666
110.63	6.8674
110.65	6.8681
110.66	6.8688
110.68	6.8695
110.70	6.8704
110.71	6.8711
110.73	6.8719
110.75	6.8724
110.76	6.8732
110.78	6.8740
110.80	6.8745
110.81	6.8750
110.83	6.8755
110.84	6.8765
110.86	6.8773
110.88	6.8780
110.90	6.8790
110.91	6.8796
110.93	6.8803
110.94	6.8812
110.96	6.8819
110.98	6.8826
110.99	6.8834
111.01	6.8840
111.03	6.8849
111.05	6.8855
111.06	6.8862
111.08	6.8872
111.09	6.8881
111.11	6.8891
111.13	6.8899
111.14	6.8906
111.16	6.8913
111.18	6.8920
111.19	6.8926
111.21	6.8934
111.23	6.8942
111.24	6.8948
111.26	6.8954
111.28	6.8961
111.30	6.8967
111.31	6.8973
111.33	6.8981
111.34	6.8990
111.36	6.8996
111.38	6.9004
111.40	6.9014
111.41	6.9021
111.43	6.9028
111.45	6.9036
111.46	6.9044
111.48	6.9053
111.49	6.9060
111.51	6.9066
111.53	6.9073
111.55	6.9078
111.56	6.9087
111.58	6.9096
111.60	6.9105
111.61	6.9114
111.63	6.9122
111.64	6.9131
111.66	6.9138
111.67	6.9146
111.69	6.9155
111.71	6.9161
111.73	6.9169
111.75	6.9178
111.76	6.9183
111.78	6.9192
111.80	6.9198
111.81	6.9204
111.83	6.9213
111.85	6.9223
111.86	6.9231
111.88	6.9239
111.89	6.9245
111.91	6.9253
111.93	6.9262
111.94	6.9268
111.96	6.9278
111.98	6.9286
111.99	6.9293
112.01	6.9301
112.03	6.9307
112.05	6.9313
112.06	6.9320
112.08	6.9327
112.09	6.9335
112.10	6.9343
112.12	6.9350
112.14	6.9358
112.16	6.9364
112.18	6.9375
112.19	6.9381
112.21	6.9387
112.23	6.9395
112.25	6.9403
112.26	6.9409
112.28	6.9416
112.29	6.9422
112.31	6.9429
112.33	6.9438
112.34	6.9446
112.36	6.9454
112.38	6.9463
112.39	6.9471
112.41	6.9478
112.43	6.9486
112.44	6.9495
112.46	6.9503
112.48	6.9511
112.49	6.9517
112.50	6.9526
112.53	6.9533
112.54	6.9542
112.56	6.9549
112.58	6.9557
112.59	6.9565
112.60	6.9572
112.63	6.9583
112.64	6.9593
112.66	6.9599
112.67	6.9606
112.69	6.9616
112.71	6.9619
112.73	6.9627
112.74	6.9634
112.76	6.9642
112.77	6.9647
112.79	6.9655
112.80	6.9664
112.83	6.9674
112.84	6.9682
112.86	6.9693
112.87	6.9702
112.89	6.9711
112.91	6.9719
112.93	6.9729
112.94	6.9738
112.96	6.9744
112.98	6.9751
112.99	6.9761
113.01	6.9769
113.03	6.9777
113.04	6.9784
113.06	6.9791
113.08	6.9800
113.09	6.9810
113.11	6.9818
113.13	6.9827
113.14	6.9836
113.16	6.9844
113.18	6.9852
113.19	6.9860
113.20	6.9867
113.22	6.9875
113.24	6.9883
113.25	6.9889
113.28	6.9895
113.29	6.9905
113.31	6.9911
113.33	6.9921
113.34	6.9930
113.36	6.9938
113.38	6.9947
113.39	6.9956
113.40	6.9964
113.42	6.9971
113.44	6.9979
113.45	6.9987
113.47	6.9994
113.49	7.0003
113.50	7.0009
113.52	7.0017
113.54	7.0027
113.55	7.0035
113.57	7.0044
113.59	7.0054
113.60	7.0064
113.62	7.0072
113.64	7.0080
113.65	7.0087
113.67	7.0094
113.69	7.0101
113.70	7.0108
113.72	7.0117
113.74	7.0123
113.76	7.0128
113.77	7.0135
113.79	7.0142
113.80	7.0149
113.82	7.0154
113.84	7.0164
113.85	7.0171
113.87	7.0180
113.89	7.0188
113.91	7.0196
113.92	7.0204
113.94	7.0212
113.95	7.0219
113.97	7.0226
113.98	7.0233
114.00	7.0239
114.02	7.0248
114.04	7.0254
114.06	7.0262
114.07	7.0270
114.09	7.0277
114.10	7.0284
114.12	7.0294
114.14	7.0302
114.15	7.0307
114.17	7.0315
114.19	7.0324
114.20	7.0331
114.22	7.0339
114.23	7.0346
114.25	7.0354
114.27	7.0361
114.29	7.0367
114.30	7.0377
114.32	7.0386
114.34	7.0394
114.35	7.0400
114.36	7.0409
114.38	7.0417
114.40	7.0425
114.42	7.0433
114.43	7.0438
114.45	7.0447
114.47	7.0456
114.49	7.0463
114.50	7.0469
114.52	7.0478
114.53	7.0485
114.55	7.0494
114.57	7.0505
114.58	7.0513
114.60	7.0523
114.62	7.0534
114.64	7.0542
114.65	7.0550
114.67	7.0557
114.69	7.0565
114.70	7.0571
114.73	7.0579
114.74	7.0585
114.75	7.0595
114.77	7.0600
114.79	7.0608
114.80	7.0615
114.82	7.0625
114.84	7.0633
114.85	7.0642
114.87	7.0650
114.89	7.0658
114.90	7.0667
114.92	7.0674
114.93	7.0681
114.95	7.0689
114.97	7.0697
114.98	7.0704
115.00	7.0710
115.02	7.0716
115.04	7.0725
115.05	7.0733
115.07	7.0744
115.08	7.0753
115.10	7.0759
115.12	7.0769
115.13	7.0775
115.15	7.0784
115.17	7.0792
115.18	7.0800
115.20	7.0808
115.22	7.0816
115.23	7.0823
115.25	7.0831
115.27	7.0841
115.29	7.0847
115.30	7.0856
115.30	7.0867
115.30	7.0875
115.30	7.0883
115.35	7.0891
115.38	7.0900
115.40	7.0910
115.42	7.0917
115.43	7.0925
115.45	7.0931
115.47	7.0942
115.49	7.0950
115.50	7.0957
115.52	7.0965
115.53	7.0973
115.55	7.0982
115.57	7.0991
115.58	7.0999
115.60	7.1008
115.62	7.1017
115.64	7.1025
115.65	7.1034
115.67	7.1044
115.68	7.1055
115.70	7.1063
115.71	7.1072
115.73	7.1078
115.75	7.1088
115.76	7.1096
115.78	7.1103
115.80	7.1112
115.82	7.1120
115.83	7.1127
115.85	7.1136
115.88	7.1145
115.88	7.1155
115.90	7.1165
115.92	7.1173
115.93	7.1180
115.95	7.1188
115.97	7.1196
115.98	7.1202
116.00	7.1212
116.01	7.1219
116.03	7.1227
116.05	7.1236
116.07	7.1246
116.08	7.1253
116.10	7.1262
116.12	7.1270
116.13	7.1278
116.15	7.1285
116.16	7.1293
116.18	7.1300
116.20	7.1309
116.22	7.1316
116.23	7.1324
116.25	7.1332
116.26	7.1339
116.28	7.1347
116.30	7.1355
116.32	7.1363
116.33	7.1372
116.35	7.1381
116.36	7.1390
116.38	7.1399
116.40	7.1407
116.41	7.1415
116.42	7.1422
116.44	7.1429
116.46	7.1436
116.48	7.1443
116.50	7.1452
116.51	7.1461
116.53	7.1465
116.55	7.1477
116.57	7.1485
116.58	7.1493
116.60	7.1503
116.61	7.1512
116.63	7.1520
116.65	7.1530
116.66	7.1538
116.68	7.1544
116.70	7.1551
116.71	7.1561
116.73	7.1569
116.75	7.1576
116.76	7.1584
116.78	7.1594
116.80	7.1601
116.81	7.1611
116.83	7.1620
116.85	7.1630
116.86	7.1637
116.88	7.1647
116.90	7.1654
116.91	7.1663
116.93	7.1669
116.95	7.1677
116.96	7.1681
116.98	7.1689
117.00	7.1698
117.02	7.1705
117.03	7.1714
117.05	7.1724
117.06	7.1734
117.08	7.1742
117.09	7.1750
117.11	7.1759
117.13	7.1768
117.15	7.1778
117.16	7.1787
117.18	7.1795
117.20	7.1804
117.22	7.1813
117.23	7.1821
117.25	7.1828
117.26	7.1838
117.28	7.1845
117.30	7.1854
117.31	7.1861
117.33	7.1870
117.34	7.1878
117.36	7.1888
117.38	7.1897
117.40	7.1906
117.41	7.1913
117.43	7.1925
117.44	7.1932
117.46	7.1940
117.48	7.1948
117.50	7.1958
117.51	7.1966
117.53	7.1975
117.55	7.1985
117.56	7.1994
117.58	7.2004
117.59	7.2013
117.61	7.2022
117.63	7.2031
117.64	7.2040
117.66	7.2049
117.68	7.2055
117.70	7.2063
117.71	7.2074
117.73	7.2080
117.74	7.2089
117.76	7.2098
117.78	7.2108
117.79	7.2118
117.81	7.2127
117.83	7.2137
117.84	7.2145
117.86	7.2154
117.88	7.2162
117.89	7.2173
117.91	7.2182
117.93	7.2190
117.94	7.2198
117.96	7.2205
117.97	7.2214
117.99	7.2222
118.01	7.2230
118.03	7.2239
118.04	7.2246
118.06	7.2256
118.08	7.2263
118.09	7.2274
118.11	7.2282
118.13	7.2289
118.14	7.2298
118.15	7.2306
118.18	7.2314
118.19	7.2322
118.21	7.2329
118.23	7.2336
118.24	7.2344
118.26	7.2354
118.28	7.2362
118.30	7.2371
118.31	7.2381
118.33	7.2388
118.35	7.2398
118.35	7.2406
118.37	7.2415
118.39	7.2422
118.41	7.2431
118.43	7.2438
118.44	7.2445
118.46	7.2452
118.48	7.2459
118.49	7.2467
118.51	7.2475
118.53	7.2482
118.54	7.2492
118.56	7.2504
118.58	7.2513
118.59	7.2523
118.61	7.2532
118.63	7.2541
118.64	7.2550
118.66	7.2559
118.68	7.2565
118.69	7.2572
118.71	7.2580
118.73	7.2587
118.74	7.2595
118.76	7.2602
118.78	7.2610
118.79	7.2616
118.81	7.2627
118.83	7.2635
118.84	7.2646
118.86	7.2657
118.88	7.2665
118.89	7.2676
118.91	7.2686
118.93	7.2694
118.94	7.2705
118.96	7.2714
118.98	7.2720
118.99	7.2730
119.01	7.2739
119.03	7.2748
119.04	7.2757
119.05	7.2768
119.07	7.2779
119.09	7.2789
119.11	7.2798
119.13	7.2807
119.14	7.2817
119.16	7.2825
119.18	7.2834
119.19	7.2842
119.20	7.2853
119.23	7.2861
119.24	7.2867
119.25	7.2876
119.27	7.2886
119.29	7.2895
119.31	7.2904
119.33	7.2913
119.34	7.2923
119.36	7.2932
119.37	7.2940
119.39	7.2948
119.40	7.2955
119.42	7.2963
119.44	7.2973
119.46	7.2979
119.47	7.2986
119.49	7.2994
119.51	7.3001
119.52	7.3010
119.54	7.3018
119.56	7.3029
119.58	7.3039
119.60	7.3050
119.61	7.3058
119.62	7.3066
119.64	7.3076
119.66	7.3084
119.67	7.3092
119.69	7.3100
119.70	7.3105
119.73	7.3113
119.74	7.3123
119.76	7.3132
119.78	7.3143
119.79	7.3152
119.80	7.3162
119.82	7.3170
119.84	7.3182
119.86	7.3191
119.88	7.3198
119.89	7.3209
119.90	7.3217
119.93	7.3226
119.94	7.3235
119.96	7.3243
119.97	7.3251
119.99	7.3261
120.00	7.3271
120.03	7.3281
120.04	7.3290
120.05	7.3298
120.07	7.3306
120.09	7.3314
120.11	7.3324
120.13	7.3332
120.14	7.3341
120.16	7.3348
120.17	7.3357
120.18	7.3366
120.20	7.3373
120.22	7.3382
120.24	7.3391
120.25	7.3398
120.27	7.3407
120.29	7.3416
120.31	7.3423
120.33	7.3429
120.34	7.3439
120.35	7.3447
120.37	7.3457
120.39	7.3466
120.40	7.3473
120.42	7.3482
120.44	7.3489
120.46	7.3497
120.48	7.3506
120.49	7.3515
120.51	7.3524
120.53	7.3533
120.54	7.3545
120.55	7.3554
120.57	7.3563
120.59	7.3571
120.60	7.3578
120.62	7.3588
120.64	7.3597
120.65	7.3605
120.67	7.3613
120.69	7.3622
120.70	7.3632
120.72	7.3640
120.74	7.3651
120.75	7.3661
120.77	7.3670
120.79	7.3681
120.80	7.3689
120.83	7.3699
120.84	7.3707
120.85	7.3716
120.87	7.3727
120.89	7.3735
120.90	7.3744
120.92	7.3751
120.94	7.3760
120.96	7.3767
120.97	7.3776
120.99	7.3786
121.00	7.3793
121.02	7.3804
121.04	7.3815
121.06	7.3824
121.07	7.3836
121.09	7.3846
121.10	7.3854
121.12	7.3862
121.14	7.3871
121.15	7.3880
121.17	7.3887
121.19	7.3897
121.20	7.3906
121.22	7.3915
121.24	7.3925
121.26	7.3934
121.28	7.3943
121.29	7.3950
121.30	7.3959
121.32	7.3969
121.34	7.3978
121.35	7.3986
121.37	7.3995
121.39	7.4004
121.40	7.4013
121.42	7.4022
121.44	7.4031
121.45	7.4038
121.47	7.4046
121.49	7.4055
121.50	7.4064
121.52	7.4076
121.53	7.4084
121.55	7.4095
121.57	7.4104
121.59	7.4112
121.61	7.4120
121.62	7.4128
121.63	7.4137
121.65	7.4147
121.67	7.4156
121.69	7.4164
121.71	7.4172
121.73	7.4180
121.74	7.4188
121.75	7.4198
121.78	7.4207
121.79	7.4218
121.80	7.4228
121.82	7.4237
121.84	7.4244
121.85	7.4252
121.87	7.4260
121.89	7.4268
121.90	7.4277
121.92	7.4287
121.94	7.4296
121.95	7.4303
121.97	7.4310
121.99	7.4319
122.00	7.4326
122.02	7.4336
122.04	7.4345
122.05	7.4354
122.07	7.4364
122.09	7.4372
122.10	7.4381
122.12	7.4389
122.14	7.4401
122.15	7.4411
122.17	7.4418
122.18	7.4428
122.20	7.4434
122.22	7.4444
122.24	7.4453
122.26	7.4461
122.27	7.4472
122.28	7.4480
122.30	7.4490
122.32	7.4500
122.33	7.4510
122.35	7.4520
122.37	7.4528
122.39	7.4538
122.40	7.4546
122.42	7.4557
122.44	7.4566
122.45	7.4576
122.47	7.4585
122.48	7.4597
122.50	7.4606
122.52	7.4619
122.54	7.4628
122.55	7.4637
122.57	7.4646
122.59	7.4655
122.60	7.4666
122.62	7.4676
122.64	7.4685
122.65	7.4691
122.67	7.4700
122.68	7.4707
122.70	7.4718
122.73	7.4728
122.74	7.4735
122.75	7.4746
122.77	7.4755
122.78	7.4766
122.80	7.4773
122.82	7.4782
122.83	7.4790
122.85	7.4800
122.87	7.4808
122.89	7.4818
122.90	7.4827
122.92	7.4834
122.94	7.4843
122.95	7.4851
122.97	7.4860
122.98	7.4870
123.00	7.4877
123.02	7.4887
123.04	7.4896
123.05	7.4907
123.07	7.4916
123.09	7.4925
123.10	7.4935
123.12	7.4945
123.13	7.4953
123.15	7.4961
123.17	7.4970
123.18	7.4979
123.20	7.4989
123.22	7.4999
123.23	7.5010
123.25	7.5018
123.27	7.5028
123.28	7.5036
123.30	7.5044
123.32	7.5056
123.33	7.5065
123.35	7.5075
123.37	7.5083
123.38	7.5094
123.40	7.5104
123.42	7.5111
123.43	7.5121
123.45	7.5130
123.47	7.5140
123.48	7.5153
123.50	7.5161
123.52	7.5169
123.53	7.5179
123.55	7.5189
123.57	7.5200
123.58	7.5209
123.60	7.5218
123.62	7.5228
123.63	7.5235
123.65	7.5244
123.67	7.5254
123.68	7.5263
123.70	7.5269
123.72	7.5279
123.73	7.5288
123.75	7.5297
123.77	7.5307
123.79	7.5316
123.80	7.5326
123.82	7.5334
123.83	7.5342
123.85	7.5349
123.86	7.5359
123.88	7.5367
123.90	7.5375
123.92	7.5385
123.93	7.5393
123.95	7.5403
123.96	7.5414
123.98	7.5423
124.00	7.5431
124.02	7.5443
124.03	7.5453
124.05	7.5460
124.07	7.5469
124.08	7.5477
124.10	7.5486
124.12	7.5496
124.13	7.5505
124.15	7.5513
124.17	7.5523
124.18	7.5533
124.20	7.5542
124.22	7.5552
124.23	7.5563
124.25	7.5571
124.26	7.5581
124.28	7.5591
124.30	7.5599
124.31	7.5608
124.33	7.5618
124.35	7.5625
124.37	7.5632
124.38	7.5641
124.40	7.5650
124.41	7.5657
124.43	7.5667
124.45	7.5676
124.47	7.5686
124.48	7.5697
124.50	7.5707
124.51	7.5716
124.53	7.5726
124.55	7.5737
124.56	7.5743
124.58	7.5750
124.60	7.5760
124.62	7.5770
124.63	7.5776
124.65	7.5786
124.66	7.5795
124.68	7.5803
124.70	7.5813
124.71	7.5824
124.73	7.5834
124.75	7.5843
124.77	7.5855
124.78	7.5864
124.80	7.5874
124.82	7.5885
124.83	7.5894
124.85	7.5905
124.86	7.5913
124.88	7.5920
124.90	7.5930
124.91	7.5938
124.93	7.5948
124.95	7.5956
124.96	7.5967
124.98	7.5976
125.00	7.5987
125.01	7.5997
125.03	7.6008
125.04	7.6018
125.06	7.6028
125.08	7.6038
125.10	7.6047
125.11	7.6056
125.13	7.6065
125.14	7.6076
125.16	7.6085
125.18	7.6095
125.20	7.6105
125.21	7.6114
125.23	7.6123
125.25	7.6134
125.26	7.6142
125.28	7.6152
125.30	7.6163
125.31	7.6174
125.33	7.6181
125.35	7.6192
125.36	7.6202
125.36	7.6211
125.38	7.6222
125.41	7.6231
125.43	7.6240
125.45	7.6249
125.47	7.6259
125.48	7.6270
125.50	7.6280
125.51	7.6291
125.53	7.6301
125.55	7.6310
125.56	7.6320
125.58	7.6331
125.59	7.6339
125.60	7.6348
125.63	7.6356
125.65	7.6364
125.67	7.6374
125.68	7.6382
125.70	7.6391
125.71	7.6402
125.73	7.6413
125.75	7.6423
125.76	7.6433
125.78	7.6442
125.79	7.6451
125.81	7.6460
125.83	7.6469
125.84	7.6480
125.86	7.6490
125.88	7.6498
125.89	7.6508
125.91	7.6516
125.93	7.6528
125.94	7.6538
125.96	7.6548
125.98	7.6558
125.99	7.6570
126.01	7.6579
126.03	7.6589
126.04	7.6598
126.06	7.6605
126.08	7.6613
126.10	7.6624
126.11	7.6634
126.13	7.6642
126.14	7.6651
126.16	7.6660
126.18	7.6669
126.19	7.6679
126.20	7.6690
126.23	7.6700
126.25	7.6712
126.26	7.6723
126.28	7.6731
126.29	7.6740
126.30	7.6749
126.33	7.6758
126.34	7.6768
126.36	7.6774
126.38	7.6784
126.39	7.6795
126.41	7.6802
126.43	7.6813
126.44	7.6824
126.46	7.6834
126.48	7.6844
126.49	7.6855
126.51	7.6865
126.53	7.6876
126.54	7.6887
126.56	7.6898
126.58	7.6907
126.59	7.6916
126.60	7.6927
126.63	7.6937
126.64	7.6942
126.65	7.6952
126.68	7.6960
126.69	7.6969
126.71	7.6980
126.73	7.6990
126.74	7.7002
126.75	7.7010
126.78	7.7021
126.79	7.7033
126.81	7.7041
126.83	7.7048
126.84	7.7059
126.85	7.7069
126.88	7.7079
126.90	7.7088
126.91	7.7098
126.93	7.7107
126.94	7.7118
126.96	7.7128
126.97	7.7139
126.99	7.7145
127.01	7.7159
127.03	7.7168
127.04	7.7180
127.06	7.7189
127.08	7.7197
127.09	7.7207
127.10	7.7213
127.12	7.7223
127.14	7.7233
127.15	7.7242
127.17	7.7251
127.19	7.7262
127.20	7.7275
127.22	7.7282
127.24	7.7292
127.25	7.7297
127.27	7.7306
127.29	7.7317
127.30	7.7327
127.32	7.7335
127.34	7.7345
127.35	7.7354
127.37	7.7367
127.39	7.7374
127.40	7.7386
127.43	7.7397
127.44	7.7406
127.45	7.7417
127.47	7.7426
127.49	7.7439
127.51	7.7446
127.52	7.7453
127.54	7.7463
127.55	7.7473
127.57	7.7482
127.58	7.7489
127.60	7.7502
127.62	7.7508
127.64	7.7520
127.66	7.7533
127.68	7.7541
127.69	7.7552
127.71	7.7563
127.73	7.7573
127.74	7.7581
127.75	7.7591
127.77	7.7599
127.79	7.7608
127.81	7.7619
127.82	7.7627
127.84	7.7639
127.85	7.7648
127.87	7.7657
127.89	7.7666
127.90	7.7676
127.92	7.7687
127.94	7.7695
127.95	7.7707
127.97	7.7717
127.98	7.7729
128.00	7.7739
128.02	7.7747
128.04	7.7756
128.05	7.7765
128.07	7.7776
128.09	7.7787
128.10	7.7796
128.12	7.7804
128.14	7.7812
128.15	7.7826
128.17	7.7836
128.19	7.7848
128.20	7.7859
128.22	7.7869
128.24	7.7879
128.25	7.7889
128.27	7.7896
128.28	7.7906
128.30	7.7916
128.32	7.7924
128.34	7.7933
128.35	7.7943
128.37	7.7954
128.39	7.7964
128.40	7.7976
128.42	7.7985
128.43	7.7997
128.45	7.8009
128.47	7.8020
128.49	7.8032
128.50	7.8044
128.52	7.8053
128.54	7.8063
128.55	7.8075
128.57	7.8083
128.59	7.8095
128.60	7.8104
128.62	7.8114
128.63	7.8127
128.65	7.8136
128.67	7.8146
128.69	7.8158
128.70	7.8170
128.72	7.8182
128.74	7.8193
128.75	7.8204
128.77	7.8216
128.79	7.8226
128.80	7.8237
128.82	7.8248
128.83	7.8259
128.85	7.8268
128.87	7.8280
128.89	7.8291
128.91	7.8303
128.93	7.8313
128.94	7.8323
128.95	7.8334
128.97	7.8344
128.98	7.8354
129.00	7.8363
129.02	7.8372
129.04	7.8382
129.05	7.8392
129.07	7.8400
129.08	7.8409
129.10	7.8419
129.12	7.8429
129.14	7.8439
129.15	7.8445
129.17	7.8454
129.19	7.8467
129.20	7.8475
129.22	7.8484
129.24	7.8493
129.25	7.8502
129.27	7.8511
129.28	7.8519
129.30	7.8526
129.32	7.8533
129.34	7.8543
129.35	7.8550
129.37	7.8561
129.39	7.8573
129.40	7.8584
129.42	7.8592
129.44	7.8601
129.45	7.8611
129.47	7.8622
129.49	7.8632
129.50	7.8641
129.52	7.8650
129.54	7.8660
129.55	7.8670
129.57	7.8679
129.59	7.8688
129.60	7.8698
129.62	7.8710
129.64	7.8718
129.65	7.8727
129.67	7.8738
129.69	7.8747
129.70	7.8758
129.72	7.8769
129.73	7.8782
129.75	7.8789
129.77	7.8796
129.78	7.8807
129.80	7.8817
129.82	7.8826
129.83	7.8836
129.86	7.8844
129.88	7.8856
129.89	7.8869
129.90	7.8878
129.92	7.8889
129.94	7.8898
129.95	7.8909
129.97	7.8919
129.99	7.8930
130.00	7.8939
130.02	7.8949
130.04	7.8958
130.05	7.8966
130.07	7.8973
130.09	7.8984
130.11	7.8994
130.13	7.9005
130.14	7.9016
130.15	7.9027
130.17	7.9036
130.18	7.9047
130.20	7.9056
130.22	7.9069
130.24	7.9080
130.25	7.9088
130.27	7.9101
130.28	7.9113
130.30	7.9122
130.32	7.9130
130.34	7.9144
130.35	7.9153
130.37	7.9166
130.38	7.9178
130.40	7.9190
130.42	7.9202
130.44	7.9214
130.45	7.9223
130.47	7.9233
130.49	7.9246
130.50	7.9256
130.52	7.9267
130.54	7.9278
130.55	7.9286
130.57	7.9296
130.58	7.9307
130.60	7.9318
130.62	7.9328
130.63	7.9337
130.65	7.9347
130.67	7.9359
130.69	7.9372
130.70	7.9382
130.72	7.9393
130.74	7.9406
130.75	7.9415
130.77	7.9426
130.79	7.9435
130.80	7.9445
130.82	7.9456
130.84	7.9467
130.85	7.9479
130.87	7.9490
130.88	7.9502
130.90	7.9512
130.92	7.9521
130.94	7.9533
130.95	7.9543
130.97	7.9552
130.98	7.9563
131.00	7.9573
131.02	7.9584
131.04	7.9591
131.05	7.9601
131.07	7.9612
131.09	7.9624
131.10	7.9636
131.12	7.9648
131.13	7.9658
131.15	7.9668
131.17	7.9679
131.18	7.9690
131.20	7.9699
131.22	7.9708
131.23	7.9718
131.25	7.9727
131.27	7.9737
131.28	7.9746
131.30	7.9755
131.32	7.9766
131.34	7.9778
131.35	7.9789
131.37	7.9800
131.38	7.9811
131.40	7.9821
131.42	7.9834
131.43	7.9843
131.45	7.9853
131.47	7.9862
131.48	7.9873
131.50	7.9883
131.52	7.9893
131.53	7.9905
131.55	7.9916
131.57	7.9929
131.59	7.9941
131.60	7.9950
131.62	7.9962
131.64	7.9973
131.65	7.9986
131.67	7.9995
131.68	8.0007
131.70	8.0017
131.72	8.0029
131.73	8.0040
131.75	8.0049
131.77	8.0059
131.78	8.0072
131.80	8.0082
131.82	8.0092
131.83	8.0103
131.85	8.0115
131.87	8.0129
131.88	8.0141
131.90	8.0152
131.92	8.0164
131.93	8.0174
131.95	8.0182
131.97	8.0194
131.99	8.0203
132.00	8.0214
132.02	8.0225
132.03	8.0235
132.05	8.0245
132.07	8.0258
132.09	8.0269
132.10	8.0280
132.12	8.0291
132.14	8.0302
132.15	8.0312
132.17	8.0323
132.18	8.0332
132.20	8.0344
132.22	8.0354
132.23	8.0367
132.25	8.0377
132.27	8.0387
132.28	8.0397
132.30	8.0407
132.32	8.0418
132.33	8.0429
132.35	8.0440
132.37	8.0454
132.38	8.0465
132.40	8.0476
132.42	8.0488
132.44	8.0499
132.45	8.0509
132.47	8.0519
132.48	8.0531
132.50	8.0541
132.52	8.0551
132.53	8.0563
132.55	8.0574
132.57	8.0586
132.58	8.0598
132.60	8.0609
132.62	8.0620
132.63	8.0630
132.65	8.0641
132.67	8.0651
132.68	8.0662
132.69	8.0672
132.71	8.0683
132.73	8.0692
132.75	8.0702
132.77	8.0711
132.78	8.0720
132.80	8.0730
132.82	8.0741
132.83	8.0754
132.85	8.0764
132.87	8.0772
132.88	8.0783
132.90	8.0796
132.92	8.0806
132.93	8.0817
132.95	8.0828
132.96	8.0837
132.98	8.0848
133.00	8.0857
133.02	8.0868
133.03	8.0881
133.05	8.0891
133.07	8.0902
133.08	8.0913
133.10	8.0924
133.12	8.0934
133.14	8.0946
133.15	8.0957
133.16	8.0967
133.18	8.0978
133.20	8.0989
133.22	8.0999
133.23	8.1009
133.25	8.1019
133.26	8.1029
133.28	8.1039
133.30	8.1052
133.32	8.1063
133.33	8.1076
133.35	8.1087
133.37	8.1099
133.38	8.1111
133.40	8.1122
133.42	8.1132
133.43	8.1143
133.45	8.1153
133.47	8.1164
133.48	8.1176
133.50	8.1187
133.52	8.1198
133.53	8.1208
133.55	8.1218
133.56	8.1230
133.59	8.1243
133.60	8.1251
133.62	8.1263
133.63	8.1274
133.65	8.1284
133.66	8.1295
133.68	8.1306
133.69	8.1315
133.71	8.1326
133.73	8.1336
133.75	8.1347
133.76	8.1357
133.78	8.1369
133.80	8.1379
133.81	8.1392
133.83	8.1402
133.85	8.1413
133.86	8.1422
133.88	8.1433
133.90	8.1443
133.92	8.1455
133.93	8.1467
133.94	8.1474
133.97	8.1485
133.98	8.1496
134.00	8.1505
134.02	8.1516
134.04	8.1528
134.05	8.1539
134.06	8.1551
134.08	8.1564
134.10	8.1575
134.12	8.1587
134.14	8.1601
134.15	8.1612
134.15	8.1625
134.17	8.1638
134.19	8.1649
134.21	8.1662
134.22	8.1673
134.23	8.1685
134.26	8.1697
134.28	8.1710
134.30	8.1723
134.31	8.1736
134.33	8.1749
134.35	8.1761
134.36	8.1773
134.38	8.1785
134.40	8.1795
134.41	8.1806
134.43	8.1817
134.45	8.1829
134.46	8.1840
134.47	8.1849
134.50	8.1861
134.51	8.1872
134.53	8.1885
134.55	8.1895
134.56	8.1907
134.58	8.1918
134.60	8.1928
134.61	8.1940
134.63	8.1951
134.64	8.1962
134.66	8.1974
134.68	8.1985
134.69	8.1997
134.71	8.2007
134.73	8.2016
134.75	8.2030
134.76	8.2043
134.78	8.2051
134.80	8.2063
134.81	8.2074
134.83	8.2084
134.85	8.2093
134.86	8.2104
134.88	8.2114
134.90	8.2124
134.91	8.2136
134.93	8.2147
134.94	8.2156
134.96	8.2167
134.98	8.2176
135.00	8.2186
135.02	8.2198
135.03	8.2210
135.05	8.2221
135.06	8.2233
135.08	8.2245
135.10	8.2256
135.11	8.2268
135.13	8.2279
135.15	8.2290
135.16	8.2302
135.18	8.2313
135.19	8.2326
135.21	8.2339
135.23	8.2349
135.24	8.2362
135.26	8.2373
135.28	8.2385
135.30	8.2397
135.31	8.2411
135.33	8.2422
135.35	8.2436
135.37	8.2450
135.38	8.2460
135.39	8.2471
135.41	8.2482
135.43	8.2493
135.44	8.2503
135.46	8.2514
135.47	8.2525
135.50	8.2538
135.51	8.2549
135.53	8.2559
135.55	8.2571
135.56	8.2581
135.57	8.2591
135.59	8.2602
135.61	8.2613
135.63	8.2622
135.64	8.2632
135.66	8.2641
135.68	8.2652
135.69	8.2662
135.71	8.2673
135.73	8.2684
135.75	8.2695
135.76	8.2706
135.78	8.2717
135.79	8.2727
135.81	8.2738
135.83	8.2748
135.85	8.2759
135.86	8.2768
135.88	8.2777
135.90	8.2788
135.91	8.2798
135.93	8.2807
135.94	8.2816
135.96	8.2826
135.98	8.2837
135.99	8.2847
136.01	8.2859
136.03	8.2871
136.05	8.2882
136.06	8.2893
136.07	8.2906
136.09	8.2915
136.11	8.2928
136.13	8.2940
136.14	8.2952
136.16	8.2965
136.18	8.2975
136.19	8.2989
136.21	8.3001
136.22	8.3014
136.24	8.3027
136.25	8.3040
136.28	8.3051
136.29	8.3062
136.31	8.3077
136.32	8.3089
136.35	8.3101
136.36	8.3114
136.38	8.3127
136.39	8.3139
136.41	8.3150
136.43	8.3161
136.44	8.3172
136.46	8.3184
136.48	8.3197
136.49	8.3209
136.51	8.3223
136.53	8.3234
136.54	8.3248
136.56	8.3261
136.58	8.3272
136.60	8.3283
136.61	8.3294
136.63	8.3307
136.64	8.3319
136.65	8.3330
136.68	8.3341
136.69	8.3354
136.71	8.3367
136.72	8.3378
136.74	8.3391
136.76	8.3403
136.78	8.3415
136.79	8.3428
136.80	8.3439
136.83	8.3451
136.84	8.3464
136.86	8.3475
136.88	8.3485
136.89	8.3497
136.91	8.3508
136.93	8.3517
136.94	8.3530
136.96	8.3542
136.97	8.3553
136.99	8.3565
137.01	8.3578
137.03	8.3590
137.04	8.3603
137.06	8.3615
137.08	8.3625
137.09	8.3637
137.11	8.3649
137.13	8.3660
137.14	8.3670
137.15	8.3681
137.18	8.3692
137.19	8.3704
137.20	8.3717
137.22	8.3728
137.24	8.3741
137.26	8.3750
137.27	8.3761
137.29	8.3773
137.31	8.3786
137.33	8.3798
137.35	8.3811
137.36	8.3822
137.38	8.3833
137.39	8.3843
137.41	8.3856
137.43	8.3867
137.44	8.3878
137.46	8.3892
137.47	8.3904
137.49	8.3918
137.51	8.3928
137.53	8.3939
137.54	8.3951
137.56	8.3964
137.58	8.3974
137.60	8.3987
137.61	8.3997
137.63	8.4009
137.64	8.4019
137.66	8.4031
137.68	8.4039
137.69	8.4052
137.71	8.4064
137.73	8.4076
137.75	8.4089
137.76	8.4099
137.78	8.4111
137.79	8.4124
137.80	8.4135
137.82	8.4145
137.84	8.4155
137.86	8.4165
137.88	8.4178
137.89	8.4189
137.91	8.4199
137.92	8.4212
137.94	8.4223
137.96	8.4236
137.97	8.4246
137.99	8.4257
138.01	8.4269
138.03	8.4280
138.04	8.4292
138.06	8.4305
138.08	8.4315
138.09	8.4326
138.11	8.4337
138.12	8.4349
138.14	8.4362
138.16	8.4375
138.18	8.4386
138.19	8.4398
138.21	8.4410
138.22	8.4423
138.24	8.4432
138.26	8.4446
138.27	8.4456
138.29	8.4468
138.31	8.4480
138.33	8.4492
138.35	8.4505
138.36	8.4518
138.37	8.4530
138.39	8.4542
138.41	8.4557
138.43	8.4571
138.44	8.4584
138.46	8.4597
138.47	8.4610
138.49	8.4623
138.51	8.4636
138.53	8.4647
138.54	8.4660
138.56	8.4671
138.58	8.4686
138.59	8.4698
138.61	8.4710
138.63	8.4720
138.65	8.4732
138.66	8.4747
138.68	8.4760
138.69	8.4776
138.70	8.4792
138.72	8.4804
138.74	8.4816
138.76	8.4828
138.78	8.4839
138.79	8.4852
138.81	8.4864
138.83	8.4876
138.84	8.4890
138.86	8.4902
138.88	8.4913
138.89	8.4925
138.91	8.4938
138.93	8.4952
138.94	8.4964
138.96	8.4976
138.97	8.4988
138.99	8.5000
139.01	8.5013
139.03	8.5024
139.04	8.5038
139.06	8.5050
139.08	8.5061
139.09	8.5074
139.10	8.5087
139.12	8.5099
139.14	8.5113
139.16	8.5126
139.18	8.5140
139.19	8.5152
139.21	8.5166
139.23	8.5179
139.25	8.5191
139.26	8.5202
139.28	8.5213
139.30	8.5222
139.31	8.5235
139.33	8.5247
139.35	8.5258
139.36	8.5270
139.38	8.5282
139.39	8.5297
139.41	8.5309
139.43	8.5321
139.44	8.5333
139.46	8.5346
139.48	8.5359
139.49	8.5370
139.51	8.5383
139.53	8.5394
139.54	8.5408
139.56	8.5420
139.58	8.5433
139.59	8.5446
139.61	8.5457
139.63	8.5469
139.65	8.5482
139.66	8.5496
139.68	8.5508
139.69	8.5521
139.71	8.5535
139.72	8.5548
139.75	8.5560
139.76	8.5574
139.78	8.5585
139.80	8.5594
139.81	8.5606
139.83	8.5617
139.85	8.5629
139.86	8.5642
139.88	8.5652
139.89	8.5667
139.91	8.5678
139.93	8.5693
139.94	8.5705
139.96	8.5717
139.97	8.5729
139.99	8.5741
140.01	8.5752
140.03	8.5766
140.04	8.5777
140.06	8.5789
140.08	8.5802
140.09	8.5811
140.11	8.5824
140.13	8.5836
140.14	8.5848
140.16	8.5861
140.18	8.5873
140.19	8.5887
140.20	8.5898
140.22	8.5911
140.24	8.5925
140.25	8.5936
140.28	8.5948
140.30	8.5962
140.31	8.5973
140.33	8.5986
140.34	8.5998
140.36	8.6009
140.38	8.6022
140.39	8.6037
140.41	8.6051
140.43	8.6063
140.44	8.6076
140.45	8.6088
140.47	8.6100
140.49	8.6112
140.51	8.6124
140.53	8.6134
140.54	8.6147
140.56	8.6159
140.58	8.6172
140.59	8.6186
140.60	8.6197
140.63	8.6211
140.64	8.6224
140.66	8.6237
140.68	8.6250
140.69	8.6262
140.71	8.6275
140.72	8.6287
140.74	8.6299
140.76	8.6311
140.78	8.6322
140.80	8.6334
140.81	8.6345
140.82	8.6358
140.84	8.6372
140.85	8.6385
140.88	8.6399
140.89	8.6414
140.91	8.6426
140.93	8.6439
140.94	8.6451
140.96	8.6464
140.97	8.6478
140.99	8.6492
141.01	8.6506
141.03	8.6518
141.04	8.6531
141.05	8.6543
141.07	8.6558
141.09	8.6573
141.11	8.6585
141.13	8.6598
141.14	8.6612
141.15	8.6627
141.18	8.6639
141.19	8.6652
141.21	8.6664
141.22	8.6677
141.24	8.6691
141.26	8.6703
141.28	8.6715
141.29	8.6728
141.30	8.6738
141.32	8.6750
141.34	8.6765
141.35	8.6777
141.38	8.6791
141.39	8.6806
141.41	8.6819
141.43	8.6834
141.44	8.6846
141.46	8.6859
141.47	8.6872
141.49	8.6885
141.51	8.6898
141.53	8.6911
141.54	8.6925
141.55	8.6938
141.57	8.6952
141.59	8.6966
141.61	8.6981
141.63	8.6995
141.64	8.7008
141.66	8.7020
141.67	8.7035
141.69	8.7051
141.71	8.7062
141.72	8.7077
141.74	8.7092
141.76	8.7105
141.77	8.7119
141.79	8.7134
141.81	8.7146
141.83	8.7161
141.85	8.7175
141.86	8.7188
141.88	8.7203
141.89	8.7217
141.91	8.7230
141.93	8.7243
141.94	8.7256
141.96	8.7268
141.97	8.7282
141.99	8.7294
142.01	8.7307
142.03	8.7319
142.04	8.7332
142.05	8.7347
142.08	8.7360
142.09	8.7373
142.11	8.7386
142.13	8.7400
142.14	8.7413
142.16	8.7427
142.18	8.7441
142.19	8.7454
142.21	8.7468
142.22	8.7481
142.24	8.7495
142.26	8.7506
142.27	8.7517
142.29	8.7530
142.30	8.7542
142.32	8.7555
142.34	8.7568
142.35	8.7580
142.38	8.7594
142.39	8.7608
142.40	8.7620
142.42	8.7632
142.44	8.7645
142.46	8.7659
142.47	8.7671
142.49	8.7685
142.51	8.7696
142.53	8.7709
142.54	8.7724
142.56	8.7737
142.58	8.7752
142.59	8.7766
142.61	8.7778
142.62	8.7789
142.64	8.7803
142.66	8.7816
142.68	8.7832
142.69	8.7845
142.71	8.7861
142.72	8.7874
142.74	8.7887
142.76	8.7898
142.78	8.7912
142.79	8.7927
142.80	8.7940
142.83	8.7956
142.84	8.7970
142.85	8.7984
142.88	8.7998
142.90	8.8012
142.91	8.8025
142.92	8.8042
142.94	8.8058
142.96	8.8073
142.97	8.8089
142.99	8.8103
143.00	8.8119
143.02	8.8135
143.04	8.8151
143.06	8.8166
143.08	8.8185
143.09	8.8199
143.10	8.8212
143.12	8.8228
143.14	8.8243
143.16	8.8257
143.17	8.8273
143.19	8.8290
143.21	8.8305
143.22	8.8318
143.24	8.8332
143.25	8.8345
143.27	8.8358
143.29	8.8375
143.31	8.8390
143.33	8.8405
143.34	8.8419
143.36	8.8434
143.38	8.8449
143.39	8.8464
143.41	8.8477
143.43	8.8492
143.44	8.8506
143.45	8.8519
143.47	8.8533
143.49	8.8547
143.50	8.8562
143.52	8.8580
143.53	8.8597
143.55	8.8612
143.58	8.8626
143.59	8.8643
143.60	8.8657
143.62	8.8672
143.64	8.8688
143.66	8.8701
143.68	8.8717
143.69	8.8732
143.71	8.8747
143.72	8.8762
143.74	8.8775
143.76	8.8790
143.78	8.8805
143.79	8.8821
143.80	8.8834
143.83	8.8850
143.84	8.8865
143.85	8.8880
143.87	8.8894
143.89	8.8908
143.90	8.8922
143.93	8.8938
143.94	8.8950
143.96	8.8965
143.97	8.8980
143.99	8.8994
144.00	8.9011
144.02	8.9025
144.04	8.9040
144.05	8.9054
144.07	8.9069
144.09	8.9083
144.10	8.9097
144.12	8.9112
144.14	8.9125
144.15	8.9139
144.17	8.9153
144.19	8.9171
144.21	8.9186
144.22	8.9201
144.24	8.9219
144.25	8.9233
144.27	8.9246
144.29	8.9262
144.30	8.9277
144.32	8.9292
144.34	8.9308
144.35	8.9321
144.37	8.9338
144.39	8.9354
144.40	8.9369
144.42	8.9385
144.44	8.9401
144.45	8.9415
144.47	8.9430
144.49	8.9447
144.50	8.9461
144.53	8.9477
144.54	8.9493
144.55	8.9509
144.57	8.9525
144.59	8.9541
144.60	8.9557
144.62	8.9573
144.63	8.9591
144.65	8.9606
144.67	8.9621
144.69	8.9637
144.70	8.9652
144.72	8.9668
144.74	8.9686
144.75	8.9701
144.77	8.9715
144.79	8.9731
144.80	8.9748
144.82	8.9763
144.84	8.9780
144.85	8.9795
144.87	8.9808
144.89	8.9825
144.90	8.9840
144.92	8.9856
144.94	8.9871
144.95	8.9888
144.97	8.9904
144.98	8.9920
145.00	8.9937
145.02	8.9956
145.04	8.9973
145.05	8.9990
145.08	9.0007
145.09	9.0024
145.10	9.0040
145.12	9.0056
145.14	9.0072
145.15	9.0087
145.17	9.0104
145.18	9.0119
145.20	9.0134
145.22	9.0152
145.24	9.0167
145.25	9.0180
145.27	9.0197
145.28	9.0213
145.30	9.0228
145.32	9.0242
145.34	9.0258
145.35	9.0274
145.37	9.0289
145.39	9.0304
145.40	9.0318
145.42	9.0335
145.44	9.0349
145.45	9.0365
145.47	9.0380
145.49	9.0397
145.50	9.0413
145.52	9.0429
145.53	9.0443
145.55	9.0460
145.57	9.0477
145.58	9.0490
145.60	9.0507
145.62	9.0524
145.64	9.0540
145.65	9.0557
145.67	9.0572
145.68	9.0589
145.70	9.0605
145.72	9.0622
145.74	9.0638
145.75	9.0653
145.76	9.0668
145.78	9.0683
145.80	9.0698
145.82	9.0717
145.83	9.0732
145.85	9.0752
145.87	9.0769
145.88	9.0786
145.90	9.0803
145.92	9.0821
145.93	9.0836
145.95	9.0854
145.96	9.0871
145.98	9.0886
146.00	9.0903
146.02	9.0920
146.03	9.0936
146.05	9.0952
146.06	9.0970
146.08	9.0987
146.09	9.1002
146.11	9.1019
146.13	9.1035
146.15	9.1050
146.17	9.1066
146.18	9.1081
146.19	9.1096
146.21	9.1113
146.23	9.1130
146.25	9.1146
146.27	9.1162
146.28	9.1178
146.30	9.1195
146.32	9.1210
146.33	9.1226
146.35	9.1241
146.37	9.1256
146.38	9.1273
146.40	9.1288
146.42	9.1306
146.43	9.1321
146.45	9.1337
146.46	9.1356
146.48	9.1372
146.50	9.1390
146.51	9.1407
146.53	9.1422
146.55	9.1437
146.56	9.1450
146.58	9.1468
146.60	9.1483
146.62	9.1499
146.63	9.1515
146.65	9.1530
146.66	9.1546
146.68	9.1561
146.69	9.1576
146.72	9.1593
146.73	9.1609
146.75	9.1625
146.77	9.1641
146.78	9.1656
146.80	9.1672
146.81	9.1689
146.83	9.1707
146.85	9.1725
146.86	9.1743
146.88	9.1760
146.89	9.1778
146.91	9.1798
146.93	9.1815
146.94	9.1832
146.96	9.1849
146.98	9.1863
146.99	9.1880
147.01	9.1896
147.03	9.1915
147.05	9.1933
147.06	9.1952
147.08	9.1969
147.10	9.1987
147.11	9.2004
147.13	9.2020
147.15	9.2038
147.16	9.2056
147.18	9.2073
147.19	9.2089
147.21	9.2105
147.23	9.2121
147.25	9.2139
147.26	9.2158
147.28	9.2177
147.30	9.2194
147.31	9.2213
147.33	9.2228
147.35	9.2247
147.36	9.2264
147.38	9.2279
147.40	9.2292
147.41	9.2309
147.43	9.2326
147.44	9.2341
147.46	9.2359
147.48	9.2376
147.49	9.2393
147.51	9.2411
147.53	9.2428
147.54	9.2445
147.56	9.2462
147.58	9.2477
147.60	9.2494
147.61	9.2508
147.63	9.2522
147.64	9.2540
147.66	9.2555
147.68	9.2572
147.69	9.2587
147.71	9.2604
147.72	9.2618
147.74	9.2636
147.76	9.2654
147.78	9.2668
147.80	9.2686
147.81	9.2701
147.83	9.2717
147.85	9.2735
147.86	9.2753
147.88	9.2771
147.89	9.2788
147.90	9.2804
147.93	9.2819
147.94	9.2836
147.96	9.2851
147.97	9.2866
147.99	9.2882
148.01	9.2899
148.03	9.2914
148.04	9.2932
148.06	9.2948
148.08	9.2967
148.09	9.2983
148.11	9.3000
148.13	9.3017
148.14	9.3034
148.16	9.3051
148.18	9.3067
148.19	9.3083
148.21	9.3098
148.22	9.3112
148.24	9.3128
148.26	9.3144
148.28	9.3161
148.30	9.3178
148.31	9.3195
148.33	9.3210
148.34	9.3225
148.35	9.3241
148.37	9.3258
148.39	9.3273
148.41	9.3289
148.43	9.3306
148.44	9.3323
148.46	9.3341
148.47	9.3357
148.49	9.3374
148.51	9.3392
148.52	9.3407
148.54	9.3423
148.56	9.3440
148.58	9.3452
148.59	9.3468
148.61	9.3483
148.63	9.3500
148.64	9.3514
148.66	9.3531
148.67	9.3546
148.69	9.3564
148.71	9.3580
148.72	9.3595
148.74	9.3611
148.76	9.3627
148.78	9.3642
148.79	9.3657
148.80	9.3672
148.82	9.3685
148.84	9.3699
148.86	9.3717
148.88	9.3730
148.89	9.3745
148.90	9.3758
148.92	9.3772
148.94	9.3788
148.95	9.3802
148.97	9.3818
148.99	9.3833
149.00	9.3849
149.03	9.3860
149.04	9.3876
149.06	9.3891
149.08	9.3904
149.09	9.3919
149.10	9.3933
149.12	9.3946
149.14	9.3961
149.16	9.3976
149.18	9.3990
149.19	9.4004
149.20	9.4019
149.22	9.4034
149.24	9.4047
149.25	9.4063
149.28	9.4077
149.29	9.4092
149.30	9.4108
149.32	9.4123
149.34	9.4138
149.35	9.4154
149.37	9.4166
149.39	9.4178
149.40	9.4191
149.43	9.4206
149.44	9.4220
149.45	9.4233
149.47	9.4247
149.49	9.4263
149.50	9.4279
149.52	9.4293
149.54	9.4307
149.55	9.4323
149.57	9.4336
149.58	9.4350
149.60	9.4362
149.62	9.4377
149.64	9.4392
149.65	9.4407
149.67	9.4421
149.68	9.4436
149.69	9.4451
149.72	9.4466
149.73	9.4480
149.75	9.4497
149.77	9.4513
149.79	9.4529
149.80	9.4541
149.82	9.4554
149.84	9.4569
149.85	9.4585
149.87	9.4597
149.89	9.4612
149.90	9.4628
149.92	9.4643
149.93	9.4655
149.95	9.4670
149.97	9.4686
149.99	9.4704
150.00	9.4720
150.02	9.4737
150.03	9.4751
150.05	9.4766
150.07	9.4779
150.09	9.4795
150.10	9.4809
150.12	9.4825
150.14	9.4839
150.15	9.4854
150.17	9.4867
150.18	9.4886
150.20	9.4901
150.22	9.4919
150.23	9.4933
150.25	9.4946
150.27	9.4961
150.28	9.4975
150.30	9.4989
150.32	9.5002
150.33	9.5017
150.35	9.5029
150.36	9.5044
150.38	9.5058
150.40	9.5071
150.42	9.5086
150.43	9.5101
150.45	9.5114
150.47	9.5129
150.48	9.5146
150.50	9.5161
150.51	9.5174
150.53	9.5186
150.55	9.5199
150.57	9.5211
150.58	9.5223
150.60	9.5236
150.62	9.5249
150.63	9.5264
150.65	9.5278
150.67	9.5293
150.68	9.5307
150.70	9.5322
150.72	9.5336
150.73	9.5349
150.75	9.5362
150.77	9.5376
150.78	9.5391
150.80	9.5407
150.82	9.5423
150.83	9.5436
150.85	9.5451
150.86	9.5465
150.88	9.5480
150.90	9.5496
150.91	9.5511
150.93	9.5527
150.95	9.5543
150.96	9.5557
150.98	9.5571
151.00	9.5585
151.02	9.5600
151.03	9.5614
151.05	9.5628
151.06	9.5642
151.08	9.5657
151.10	9.5674
151.11	9.5689
151.13	9.5705
151.15	9.5719
151.17	9.5734
151.18	9.5748
151.19	9.5761
151.21	9.5776
151.22	9.5789
151.24	9.5803
151.26	9.5820
151.28	9.5833
151.30	9.5847
151.31	9.5862
151.33	9.5878
151.35	9.5892
151.36	9.5909
151.38	9.5923
151.40	9.5936
151.42	9.5951
151.43	9.5967
151.44	9.5980
151.47	9.5994
151.48	9.6008
151.50	9.6022
151.51	9.6038
151.53	9.6053
151.55	9.6070
151.56	9.6084
151.58	9.6102
151.60	9.6116
151.61	9.6133
151.63	9.6149
151.65	9.6165
151.67	9.6181
151.68	9.6196
151.69	9.6212
151.71	9.6229
151.73	9.6246
151.75	9.6261
151.76	9.6277
151.78	9.6293
151.80	9.6310
151.81	9.6327
151.83	9.6342
151.85	9.6357
151.86	9.6374
151.88	9.6389
151.89	9.6406
151.91	9.6424
151.93	9.6443
151.94	9.6461
151.96	9.6478
151.97	9.6495
151.99	9.6510
152.01	9.6526
152.03	9.6542
152.04	9.6560
152.06	9.6578
152.08	9.6596
152.09	9.6612
152.11	9.6630
152.13	9.6650
152.14	9.6668
152.16	9.6686
152.18	9.6704
152.19	9.6723
152.21	9.6742
152.22	9.6760
152.24	9.6779
152.26	9.6797
152.28	9.6816
152.30	9.6833
152.31	9.6853
152.32	9.6873
152.34	9.6893
152.36	9.6913
152.38	9.6931
152.39	9.6949
152.41	9.6968
152.43	9.6986
152.44	9.7006
152.46	9.7021
152.47	9.7039
152.49	9.7059
152.51	9.7078
152.53	9.7098
152.54	9.7117
152.56	9.7136
152.57	9.7157
152.59	9.7175
152.60	9.7195
152.63	9.7216
152.64	9.7237
152.66	9.7258
152.68	9.7277
152.69	9.7297
152.70	9.7317
152.72	9.7337
152.74	9.7358
152.75	9.7379
152.77	9.7400
152.79	9.7420
152.81	9.7439
152.82	9.7459
152.84	9.7477
152.86	9.7497
152.88	9.7515
152.89	9.7535
152.90	9.7555
152.92	9.7577
152.94	9.7599
152.95	9.7618
152.97	9.7640
152.99	9.7660
153.01	9.7680
153.03	9.7702
153.04	9.7724
153.05	9.7745
153.07	9.7765
153.09	9.7785
153.11	9.7808
153.12	9.7829
153.14	9.7850
153.15	9.7873
153.17	9.7894
153.19	9.7917
153.20	9.7940
153.22	9.7961
153.23	9.7982
153.25	9.8003
153.27	9.8022
153.29	9.8043
153.30	9.8066
153.32	9.8090
153.34	9.8111
153.35	9.8134
153.37	9.8157
153.39	9.8179
153.40	9.8202
153.42	9.8224
153.44	9.8244
153.46	9.8267
153.47	9.8289
153.49	9.8312
153.50	9.8334
153.52	9.8356
153.54	9.8380
153.55	9.8403
153.57	9.8426
153.59	9.8447
153.60	9.8470
153.62	9.8492
153.64	9.8514
153.65	9.8535
153.67	9.8558
153.68	9.8582
153.70	9.8607
153.72	9.8632
153.74	9.8655
153.75	9.8679
153.77	9.8704
153.79	9.8725
153.80	9.8749
153.82	9.8773
153.83	9.8797
153.85	9.8819
153.87	9.8843
153.88	9.8865
153.90	9.8889
153.92	9.8914
153.93	9.8936
153.95	9.8958
153.97	9.8981
153.99	9.9005
154.00	9.9028
154.02	9.9050
154.03	9.9073
154.05	9.9096
154.07	9.9120
154.09	9.9142
154.10	9.9165
154.12	9.9192
154.13	9.9215
154.15	9.9240
154.17	9.9263
154.18	9.9285
154.20	9.9310
154.22	9.9331
154.23	9.9353
154.25	9.9377
154.27	9.9401
154.28	9.9423
154.30	9.9447
154.32	9.9472
154.33	9.9497
154.35	9.9521
154.37	9.9545
154.38	9.9568
154.40	9.9592
154.42	9.9615
154.43	9.9637
154.45	9.9662
154.47	9.9686
154.48	9.9708
154.50	9.9731
154.52	9.9756
154.53	9.9781
154.55	9.9804
154.56	9.9830
154.58	9.9854
154.60	9.9877
154.62	9.9900
154.63	9.9923
154.65	9.9947
154.67	9.9972
154.68	9.9993
154.70	10.0017
154.71	10.0040
154.73	10.0062
154.75	10.0087
154.76	10.0111
154.78	10.0135
154.80	10.0160
154.81	10.0183
154.83	10.0206
154.85	10.0231
154.87	10.0255
154.88	10.0275
154.90	10.0299
154.91	10.0323
154.93	10.0348
154.94	10.0372
154.97	10.0396
154.98	10.0421
155.00	10.0442
155.01	10.0466
155.03	10.0491
155.04	10.0516
155.06	10.0540
155.08	10.0566
155.10	10.0590
155.11	10.0616
155.13	10.0641
155.15	10.0666
155.16	10.0691
155.18	10.0717
155.19	10.0741
155.21	10.0766
155.23	10.0789
155.25	10.0813
155.26	10.0837
155.28	10.0861
155.30	10.0887
155.31	10.0909
155.33	10.0934
155.35	10.0961
155.36	10.0984
155.38	10.1010
155.39	10.1034
155.41	10.1057
155.43	10.1084
155.44	10.1110
155.46	10.1135
155.48	10.1159
155.50	10.1185
155.51	10.1210
155.53	10.1235
155.54	10.1261
155.56	10.1285
155.58	10.1311
155.59	10.1336
155.61	10.1362
155.63	10.1389
155.65	10.1415
155.66	10.1440
155.68	10.1466
155.69	10.1491
155.71	10.1517
155.72	10.1543
155.75	10.1569
155.76	10.1595
155.78	10.1623
155.79	10.1649
155.81	10.1675
155.83	10.1703
155.84	10.1729
155.86	10.1754
155.88	10.1781
155.89	10.1807
155.90	10.1833
155.92	10.1860
155.94	10.1888
155.96	10.1915
155.98	10.1944
155.99	10.1970
156.01	10.1998
156.03	10.2027
156.05	10.2053
156.06	10.2081
156.08	10.2107
156.09	10.2136
156.11	10.2162
156.13	10.2189
156.14	10.2217
156.16	10.2244
156.18	10.2272
156.19	10.2299
156.21	10.2328
156.22	10.2356
156.25	10.2383
156.26	10.2410
156.28	10.2439
156.29	10.2464
156.30	10.2490
156.33	10.2517
156.35	10.2545
156.36	10.2572
156.37	10.2601
156.39	10.2628
156.40	10.2657
156.43	10.2686
156.44	10.2713
156.46	10.2740
156.47	10.2768
156.49	10.2795
156.51	10.2824
156.53	10.2851
156.54	10.2879
156.55	10.2906
156.58	10.2937
156.59	10.2966
156.61	10.2995
156.63	10.3025
156.64	10.3054
156.66	10.3082
156.68	10.3112
156.69	10.3142
156.71	10.3171
156.72	10.3200
156.74	10.3230
156.76	10.3260
156.78	10.3290
156.79	10.3319
156.81	10.3350
156.82	10.3378
156.84	10.3406
156.85	10.3436
156.87	10.3465
156.89	10.3494
156.91	10.3522
156.92	10.3551
156.94	10.3582
156.95	10.3610
156.97	10.3640
156.99	10.3671
157.00	10.3699
157.02	10.3729
157.04	10.3757
157.05	10.3785
157.08	10.3812
157.10	10.3840
157.11	10.3867
157.12	10.3895
157.14	10.3922
157.16	10.3952
157.17	10.3981
157.19	10.4007
157.20	10.4034
157.22	10.4062
157.24	10.4089
157.25	10.4116
157.27	10.4146
157.29	10.4173
157.30	10.4200
157.32	10.4229
157.34	10.4257
157.35	10.4284
157.37	10.4313
157.39	10.4343
157.40	10.4372
157.43	10.4400
157.44	10.4431
157.45	10.4459
157.47	10.4488
157.48	10.4517
157.50	10.4548
157.53	10.4578
157.54	10.4607
157.55	10.4636
157.57	10.4668
157.58	10.4701
157.60	10.4731
157.62	10.4762
157.64	10.4794
157.66	10.4824
157.67	10.4855
157.69	10.4887
157.70	10.4919
157.72	10.4950
157.74	10.4983
157.75	10.5015
157.77	10.5048
157.79	10.5081
157.80	10.5114
157.82	10.5146
157.84	10.5181
157.85	10.5214
157.88	10.5247
157.89	10.5280
157.90	10.5312
157.92	10.5348
157.94	10.5383
157.95	10.5416
157.97	10.5452
157.99	10.5487
158.00	10.5522
158.02	10.5556
158.03	10.5592
158.05	10.5624
158.07	10.5659
158.08	10.5696
158.10	10.5730
158.12	10.5764
158.14	10.5801
158.15	10.5836
158.17	10.5873
158.18	10.5910
158.20	10.5946
158.22	10.5982
158.24	10.6019
158.25	10.6054
158.27	10.6092
158.28	10.6128
158.30	10.6166
158.32	10.6202
158.34	10.6238
158.35	10.6276
158.37	10.6313
158.39	10.6350
158.40	10.6388
158.42	10.6424
158.44	10.6460
158.45	10.6499
158.47	10.6536
158.48	10.6571
158.50	10.6609
158.52	10.6649
158.53	10.6687
158.55	10.6725
158.57	10.6764
158.58	10.6802
158.60	10.6838
158.62	10.6876
158.64	10.6914
158.65	10.6951
158.67	10.6990
158.68	10.7028
158.69	10.7064
158.72	10.7105
158.73	10.7144
158.75	10.7184
158.76	10.7222
158.78	10.7264
158.80	10.7301
158.82	10.7340
158.83	10.7383
158.85	10.7419
158.87	10.7458
158.88	10.7497
158.90	10.7535
158.92	10.7575
158.93	10.7615
158.95	10.7656
158.97	10.7696
158.98	10.7738
159.00	10.7778
159.02	10.7817
159.03	10.7857
159.05	10.7896
159.07	10.7938
159.08	10.7978
159.10	10.8018
159.12	10.8058
159.13	10.8099
159.15	10.8140
159.17	10.8182
159.18	10.8222
159.20	10.8264
159.22	10.8305
159.23	10.8347
159.25	10.8388
159.26	10.8428
159.28	10.8470
159.30	10.8512
159.31	10.8553
159.33	10.8596
159.35	10.8638
159.37	10.8681
159.38	10.8724
159.40	10.8768
159.41	10.8810
159.43	10.8852
159.45	10.8896
159.47	10.8941
159.48	10.8985
159.50	10.9026
159.52	10.9070
159.53	10.9113
159.55	10.9157
159.57	10.9203
159.58	10.9248
159.60	10.9293
159.62	10.9339
159.63	10.9385
159.65	10.9430
159.66	10.9475
159.68	10.9522
159.69	10.9567
159.72	10.9611
159.73	10.9657
159.75	10.9704
159.77	10.9751
159.78	10.9798
159.80	10.9847
159.82	10.9894
159.83	10.9943
159.85	10.9989
159.87	11.0036
159.88	11.0082
159.90	11.0130
159.91	11.0177
159.93	11.0223
159.95	11.0272
159.97	11.0321
159.98	11.0368
160.00	11.0417
160.01	11.0465
160.03	11.0515
160.05	11.0565
160.06	11.0612
160.08	11.0662
160.10	11.0711
160.11	11.0761
160.13	11.0812
160.15	11.0863
160.16	11.0914
160.18	11.0965
160.19	11.1017
160.21	11.1069
160.23	11.1120
160.25	11.1171
160.26	11.1220
160.28	11.1272
160.30	11.1323
160.31	11.1375
160.33	11.1426
160.34	11.1479
160.36	11.1532
160.38	11.1584
160.40	11.1637
160.42	11.1691
160.43	11.1745
160.44	11.1798
160.46	11.1851
160.48	11.1903
160.50	11.1957
160.51	11.2012
160.53	11.2064
160.55	11.2116
160.57	11.2173
160.58	11.2227
160.60	11.2281
160.61	11.2336
160.63	11.2390
160.65	11.2444
160.66	11.2498
160.68	11.2551
160.69	11.2606
160.71	11.2659
160.72	11.2713
160.75	11.2768
160.76	11.2823
160.78	11.2878
160.80	11.2933
160.81	11.2988
160.83	11.3043
160.85	11.3099
160.86	11.3154
160.88	11.3210
160.90	11.3266
160.91	11.3321
160.93	11.3377
160.95	11.3434
160.96	11.3490
160.98	11.3546
161.00	11.3603
161.01	11.3660
161.03	11.3717
161.05	11.3773
161.06	11.3830
161.08	11.3888
161.09	11.3944
161.11	11.4002
161.13	11.4060
161.15	11.4118
161.16	11.4177
161.18	11.4236
161.19	11.4294
161.21	11.4353
161.22	11.4410
161.24	11.4469
161.26	11.4529
161.28	11.4589
161.30	11.4648
161.31	11.4706
161.33	11.4766
161.35	11.4826
161.36	11.4888
161.38	11.4946
161.39	11.5007
161.41	11.5069
161.43	11.5132
161.44	11.5191
161.46	11.5252
161.48	11.5313
161.49	11.5375
161.51	11.5435
161.53	11.5495
161.54	11.5558
161.56	11.5619
161.58	11.5680
161.59	11.5744
161.60	11.5807
161.63	11.5868
161.64	11.5930
161.66	11.5992
161.68	11.6053
161.69	11.6113
161.71	11.6176
161.72	11.6238
161.74	11.6300
161.76	11.6363
161.77	11.6427
161.79	11.6490
161.80	11.6553
161.83	11.6617
161.84	11.6678
161.86	11.6742
161.88	11.6804
161.89	11.6867
161.90	11.6931
161.93	11.6994
161.94	11.7057
161.96	11.7122
161.98	11.7184
162.00	11.7249
162.01	11.7313
162.02	11.7374
162.04	11.7440
162.05	11.7504
162.07	11.7567
162.09	11.7630
162.11	11.7692
162.13	11.7753
162.14	11.7816
162.15	11.7879
162.17	11.7942
162.19	11.8002
162.20	11.8063
162.22	11.8126
162.24	11.8188
162.26	11.8251
162.28	11.8313
162.29	11.8376
162.30	11.8438
162.33	11.8500
162.34	11.8561
162.35	11.8624
162.37	11.8686
162.39	11.8747
162.40	11.8809
162.42	11.8869
162.44	11.8931
162.45	11.8992
162.47	11.9051
162.49	11.9112
162.50	11.9173
162.52	11.9233
162.54	11.9294
162.55	11.9356
162.58	11.9416
162.59	11.9474
162.60	11.9536
162.62	11.9595
162.64	11.9657
162.65	11.9719
162.67	11.9778
162.69	11.9840
162.70	11.9901
162.72	11.9961
162.74	12.0023
162.75	12.0083
162.77	12.0146
162.78	12.0207
162.80	12.0268
162.82	12.0328
162.83	12.0389
162.85	12.0448
162.87	12.0508
162.89	12.0570
162.90	12.0630
162.92	12.0690
162.93	12.0750
162.95	12.0810
162.97	12.0868
162.98	12.0928
163.00	12.0988
163.02	12.1046
163.04	12.1107
163.05	12.1166
163.07	12.1224
163.09	12.1285
163.10	12.1344
163.12	12.1403
163.13	12.1460
163.15	12.1518
163.17	12.1576
163.18	12.1635
163.20	12.1693
163.22	12.1752
163.23	12.1810
163.25	12.1870
163.27	12.1927
163.28	12.1985
163.30	12.2044
163.32	12.2099
163.33	12.2158
163.35	12.2216
163.37	12.2271
163.38	12.2329
163.40	12.2386
163.42	12.2445
163.43	12.2501
163.45	12.2559
163.47	12.2615
163.49	12.2671
163.50	12.2729
163.52	12.2786
163.53	12.2843
163.55	12.2900
163.57	12.2956
163.58	12.3016
163.60	12.3074
163.62	12.3130
163.63	12.3190
163.65	12.3248
163.67	12.3304
163.68	12.3363
163.69	12.3420
163.72	12.3476
163.73	12.3533
163.75	12.3590
163.77	12.3648
163.78	12.3704
163.80	12.3760
163.81	12.3817
163.83	12.3874
163.85	12.3933
163.87	12.3989
163.88	12.4045
163.90	12.4102
163.92	12.4161
163.93	12.4221
163.95	12.4279
163.97	12.4338
163.98	12.4396
164.00	12.4456
164.01	12.4517
164.03	12.4576
164.05	12.4634
164.06	12.4694
164.08	12.4752
164.10	12.4810
164.12	12.4867
164.13	12.4924
164.15	12.4980
164.17	12.5036
164.18	12.5094
164.20	12.5150
164.21	12.5206
164.23	12.5263
164.25	12.5318
164.26	12.5371
164.28	12.5426
164.30	12.5481
164.32	12.5536
164.33	12.5590
164.35	12.5645
164.37	12.5699
164.38	12.5755
164.40	12.5808
164.42	12.5861
164.43	12.5913
164.44	12.5966
164.46	12.6018
164.48	12.6070
164.50	12.6124
164.51	12.6173
164.53	12.6225
164.55	12.6279
164.56	12.6329
164.58	12.6383
164.60	12.6434
164.62	12.6484
164.63	12.6536
164.65	12.6586
164.66	12.6637
164.68	12.6686
164.70	12.6737
164.71	12.6787
164.73	12.6838
164.75	12.6888
164.76	12.6938
164.78	12.6990
164.80	12.7042
164.81	12.7093
164.83	12.7144
164.85	12.7195
164.86	12.7246
164.88	12.7297
164.90	12.7348
164.92	12.7398
164.93	12.7450
164.95	12.7499
164.97	12.7551
164.98	12.7602
165.00	12.7655
165.01	12.7706
165.03	12.7760
165.05	12.7811
165.06	12.7862
165.08	12.7914
165.10	12.7964
165.11	12.8014
165.13	12.8062
165.15	12.8112
165.16	12.8163
165.18	12.8216
165.19	12.8266
165.21	12.8319
165.23	12.8369
165.24	12.8419
165.26	12.8469
165.28	12.8521
165.30	12.8572
165.31	12.8621
165.33	12.8670
165.35	12.8719
165.36	12.8769
165.38	12.8818
165.40	12.8867
165.41	12.8918
165.43	12.8966
165.44	12.9015
165.46	12.9066
165.48	12.9113
165.50	12.9161
165.51	12.9208
165.53	12.9258
165.55	12.9302
165.56	12.9350
165.58	12.9397
165.60	12.9443
165.61	12.9493
165.63	12.9537
165.65	12.9583
165.66	12.9630
165.68	12.9675
165.69	12.9721
165.71	12.9765
165.73	12.9810
165.75	12.9855
165.76	12.9901
165.78	12.9946
165.80	12.9991
165.81	13.0036
165.83	13.0081
165.85	13.0124
165.86	13.0167
165.88	13.0212
165.89	13.0254
165.91	13.0295
165.93	13.0340
165.94	13.0381
165.96	13.0424
165.98	13.0467
166.00	13.0507
166.01	13.0549
166.03	13.0592
166.05	13.0633
166.06	13.0673
166.08	13.0715
166.10	13.0753
166.11	13.0793
166.13	13.0832
166.14	13.0869
166.16	13.0908
166.18	13.0946
166.19	13.0985
166.21	13.1023
166.23	13.1062
166.25	13.1096
166.26	13.1135
166.28	13.1171
166.30	13.1207
166.31	13.1244
166.33	13.1279
166.34	13.1313
166.35	13.1347
166.37	13.1382
166.39	13.1416
166.41	13.1451
166.43	13.1484
166.44	13.1515
166.46	13.1549
166.47	13.1580
166.49	13.1610
166.51	13.1641
166.53	13.1671
166.54	13.1702
166.56	13.1732
166.58	13.1762
166.59	13.1791
166.61	13.1821
166.63	13.1849
166.64	13.1878
166.66	13.1904
166.68	13.1930
166.69	13.1957
166.71	13.1983
166.72	13.2009
166.74	13.2033
166.76	13.2060
166.78	13.2086
166.79	13.2111
166.81	13.2134
166.83	13.2159
166.84	13.2185
166.86	13.2208
166.88	13.2233
166.89	13.2254
166.90	13.2278
166.93	13.2301
166.94	13.2322
166.96	13.2345
166.97	13.2367
167.00	13.2388
167.01	13.2411
167.03	13.2431
167.04	13.2451
167.06	13.2472
167.07	13.2491
167.09	13.2511
167.10	13.2530
167.13	13.2548
167.14	13.2566
167.16	13.2583
167.18	13.2600
167.19	13.2616
167.20	13.2635
167.22	13.2650
167.24	13.2665
167.25	13.2682
167.28	13.2696
167.29	13.2711
167.31	13.2725
167.33	13.2739
167.34	13.2750
167.36	13.2764
167.38	13.2776
167.39	13.2789
167.41	13.2799
167.42	13.2811
167.44	13.2822
167.46	13.2833
167.47	13.2844
167.49	13.2852
167.50	13.2862
167.53	13.2870
167.54	13.2877
167.56	13.2883
167.58	13.2891
167.59	13.2896
167.61	13.2904
167.63	13.2909
167.64	13.2913
167.66	13.2912
167.68	13.2916
167.69	13.2917
167.70	13.2919
167.72	13.2919
167.74	13.2919
167.75	13.2919
167.77	13.2919
167.79	13.2917
167.81	13.2916
167.82	13.2915
167.84	13.2910
167.86	13.2907
167.88	13.2902
167.89	13.2896
167.91	13.2890
167.93	13.2882
167.94	13.2874
167.95	13.2865
167.97	13.2857
167.99	13.2845
168.00	13.2834
168.02	13.2822
168.04	13.2809
168.05	13.2793
168.07	13.2781
168.09	13.2764
168.11	13.2749
168.12	13.2731
168.14	13.2713
168.16	13.2695
168.17	13.2675
168.19	13.2657
168.20	13.2637
168.22	13.2617
168.24	13.2597
168.25	13.2577
168.27	13.2553
168.29	13.2532
168.30	13.2510
168.32	13.2487
168.34	13.2463
168.35	13.2441
168.38	13.2417
168.39	13.2393
168.40	13.2368
168.42	13.2343
168.44	13.2317
168.45	13.2289
168.47	13.2265
168.49	13.2234
168.51	13.2207
168.53	13.2179
168.54	13.2148
168.55	13.2117
168.58	13.2090
168.59	13.2059
168.61	13.2027
168.63	13.1996
168.65	13.1963
168.66	13.1928
168.68	13.1894
168.69	13.1855
168.71	13.1819
168.72	13.1783
168.74	13.1743
168.76	13.1704
168.78	13.1665
168.79	13.1625
168.81	13.1586
168.82	13.1545
168.84	13.1501
168.85	13.1458
168.88	13.1417
168.90	13.1373
168.91	13.1328
168.93	13.1281
168.94	13.1235
168.95	13.1189
168.97	13.1141
168.99	13.1091
169.01	13.1041
169.03	13.0990
169.04	13.0940
169.05	13.0887
169.08	13.0833
169.09	13.0777
169.10	13.0724
169.12	13.0668
169.14	13.0611
169.15	13.0553
169.17	13.0496
169.19	13.0434
169.20	13.0375
169.22	13.0314
169.24	13.0250
169.25	13.0186
169.27	13.0120
169.29	13.0055
169.31	12.9987
169.33	12.9920
169.34	12.9849
169.36	12.9778
169.37	12.9707
169.39	12.9634
169.40	12.9561
169.42	12.9488
169.44	12.9411
169.46	12.9335
169.47	12.9255
169.49	12.9176
169.51	12.9094
169.52	12.9013
169.54	12.8929
169.55	12.8847
169.57	12.8762
169.59	12.8676
169.60	12.8588
169.62	12.8501
169.64	12.8408
169.66	12.8318
169.68	12.8225
169.69	12.8131
169.71	12.8038
169.72	12.7940
169.74	12.7841
169.76	12.7741
169.77	12.7643
169.79	12.7543
169.80	12.7441
169.82	12.7337
169.84	12.7232
169.86	12.7126
169.87	12.7018
169.89	12.6908
169.90	12.6796
169.92	12.6685
169.94	12.6573
169.95	12.6458
169.97	12.6344
169.99	12.6224
170.00	12.6107
170.02	12.5987
170.04	12.5864
170.05	12.5741
170.07	12.5616
170.09	12.5490
170.10	12.5364
170.12	12.5235
170.14	12.5105
170.15	12.4975
170.18	12.4843
170.19	12.4707
170.20	12.4573
170.22	12.4436
170.24	12.4298
170.26	12.4157
170.27	12.4018
170.29	12.3877
170.30	12.3735
170.32	12.3592
170.34	12.3448
170.35	12.3300
170.37	12.3153
170.39	12.3006
170.40	12.2857
170.42	12.2707
170.44	12.2554
170.45	12.2401
170.47	12.2247
170.49	12.2092
170.50	12.1935
170.53	12.1778
170.53	12.1619
170.56	12.1460
170.58	12.1299
170.60	12.1139
170.61	12.0978
170.62	12.0812
170.63	12.0648
170.66	12.0484
170.67	12.0317
170.69	12.0150
170.70	11.9984
170.72	11.9816
170.74	11.9648
170.75	11.9478
170.77	11.9309
170.79	11.9139
170.80	11.8970
170.82	11.8799
170.84	11.8625
170.85	11.8451
170.87	11.8278
170.89	11.8106
170.90	11.7933
170.92	11.7757
170.94	11.7581
170.95	11.7405
170.97	11.7229
170.99	11.7055
171.00	11.6878
171.02	11.6703
171.04	11.6527
171.05	11.6352
171.07	11.6176
171.09	11.6001
171.10	11.5825
171.12	11.5648
171.14	11.5474
171.15	11.5299
171.17	11.5126
171.18	11.4954
171.20	11.4782
171.22	11.4611
171.24	11.4440
171.25	11.4269
171.27	11.4099
171.29	11.3930
171.30	11.3761
171.32	11.3592
171.33	11.3424
171.35	11.3259
171.37	11.3091
171.39	11.2929
171.40	11.2764
171.42	11.2604
171.43	11.2445
171.45	11.2286
171.47	11.2128
171.48	11.1972
171.50	11.1818
171.52	11.1661
171.54	11.1508
171.55	11.1359
171.57	11.1206
171.59	11.1059
171.60	11.0913
171.62	11.0769
171.64	11.0627
171.65	11.0486
171.67	11.0345
171.68	11.0205
171.70	11.0068
171.72	10.9930
171.74	10.9797
171.75	10.9665
171.77	10.9535
171.78	10.9405
171.80	10.9277
171.82	10.9154
171.84	10.9028
171.85	10.8907
171.87	10.8786
171.88	10.8666
171.90	10.8550
171.92	10.8434
171.94	10.8320
171.95	10.8209
171.97	10.8099
171.98	10.7990
172.00	10.7884
172.02	10.7777
172.03	10.7675
172.05	10.7572
172.07	10.7473
172.08	10.7373
172.10	10.7276
172.12	10.7179
172.14	10.7087
172.15	10.6994
172.17	10.6905
172.19	10.6818
172.20	10.6733
172.22	10.6650
172.23	10.6569
172.25	10.6488
172.27	10.6409
172.28	10.6328
172.30	10.6252
172.32	10.6177
172.34	10.6101
172.35	10.6030
172.37	10.5957
172.38	10.5892
172.40	10.5825
172.42	10.5761
172.43	10.5699
172.45	10.5638
172.47	10.5573
172.48	10.5513
172.50	10.5453
172.52	10.5394
172.53	10.5337
172.55	10.5284
172.57	10.5231
172.58	10.5181
172.60	10.5130
172.62	10.5080
172.64	10.5032
172.65	10.4986
172.67	10.4939
172.68	10.4893
172.70	10.4850
172.72	10.4806
172.73	10.4762
172.75	10.4722
172.77	10.4680
172.79	10.4643
172.80	10.4605
172.82	10.4568
172.83	10.4532
172.85	10.4498
172.87	10.4461
172.88	10.4431
172.90	10.4397
172.92	10.4367
172.93	10.4336
172.95	10.4307
172.97	10.4278
172.99	10.4251
173.00	10.4224
173.01	10.4200
173.03	10.4174
173.05	10.4151
173.07	10.4127
173.08	10.4104
173.10	10.4083
173.12	10.4062
173.13	10.4042
173.15	10.4023
173.17	10.4003
173.18	10.3985
173.20	10.3967
173.22	10.3948
173.23	10.3936
173.25	10.3921
173.26	10.3905
173.28	10.3891
173.30	10.3878
173.32	10.3866
173.33	10.3854
173.35	10.3843
173.36	10.3834
173.38	10.3824
173.40	10.3814
173.42	10.3807
173.43	10.3797
173.45	10.3791
173.47	10.3782
173.48	10.3776
173.50	10.3767
173.52	10.3761
173.53	10.3755
173.55	10.3748
173.56	10.3742
173.58	10.3739
173.60	10.3736
173.62	10.3731
173.63	10.3727
173.65	10.3723
173.67	10.3718
173.68	10.3714
173.69	10.3711
173.71	10.3708
173.73	10.3705
173.75	10.3702
173.77	10.3701
173.79	10.3702
173.80	10.3702
173.82	10.3702
173.83	10.3701
173.85	10.3706
173.86	10.3705
173.88	10.3708
173.90	10.3709
173.92	10.3710
173.93	10.3713
173.94	10.3715
173.97	10.3719
173.98	10.3719
174.00	10.3722
174.01	10.3722
174.03	10.3723
174.05	10.3724
174.06	10.3724
174.08	10.3725
174.10	10.3725
174.12	10.3724
174.13	10.3721
174.15	10.3719
174.16	10.3717
174.18	10.3716
174.19	10.3714
174.21	10.3712
174.22	10.3709
174.24	10.3707
174.26	10.3703
174.28	10.3700
174.30	10.3698
174.31	10.3693
174.33	10.3690
174.35	10.3687
174.36	10.3684
174.38	10.3680
174.40	10.3681
174.41	10.3680
174.43	10.3681
174.45	10.3680
174.46	10.3681
174.48	10.3681
174.50	10.3680
174.51	10.3680
174.53	10.3681
174.54	10.3684
174.56	10.3688
174.58	10.3692
174.60	10.3696
174.61	10.3701
174.63	10.3707
174.65	10.3710
174.66	10.3715
174.68	10.3720
174.69	10.3725
174.71	10.3729
174.73	10.3733
174.75	10.3740
174.76	10.3747
174.78	10.3754
174.80	10.3762
174.81	10.3770
174.83	10.3776
174.84	10.3784
174.86	10.3793
174.88	10.3805
174.90	10.3812
174.91	10.3822
174.93	10.3834
174.94	10.3844
174.96	10.3853
174.98	10.3864
175.00	10.3874
175.01	10.3885
175.03	10.3897
175.04	10.3910
175.06	10.3920
175.08	10.3931
175.09	10.3940
175.11	10.3949
175.13	10.3962
175.15	10.3975
175.16	10.3985
175.18	10.3998
175.19	10.4010
175.21	10.4022
175.23	10.4036
175.25	10.4047
175.26	10.4058
175.28	10.4071
175.30	10.4082
175.31	10.4096
175.33	10.4107
175.35	10.4120
175.36	10.4137
175.38	10.4150
175.40	10.4164
175.41	10.4176
175.43	10.4190
175.44	10.4204
175.46	10.4217
175.47	10.4231
175.50	10.4244
175.51	10.4258
175.53	10.4270
175.55	10.4282
175.56	10.4296
175.58	10.4311
175.59	10.4325
175.61	10.4339
175.63	10.4352
175.64	10.4365
175.66	10.4377
175.68	10.4391
175.69	10.4403
175.71	10.4414
175.72	10.4426
175.75	10.4440
175.77	10.4451
175.78	10.4465
175.80	10.4478
175.81	10.4489
175.83	10.4501
175.85	10.4514
175.86	10.4529
175.88	10.4541
175.90	10.4551
175.91	10.4564
175.93	10.4579
175.94	10.4590
175.96	10.4604
175.97	10.4617
175.99	10.4631
176.01	10.4645
176.03	10.4658
176.04	10.4669
176.06	10.4682
176.08	10.4698
176.10	10.4710
176.11	10.4724
176.13	10.4738
176.14	10.4751
176.16	10.4765
176.18	10.4781
176.19	10.4794
176.21	10.4809
176.22	10.4823
176.24	10.4835
176.26	10.4847
176.28	10.4862
176.29	10.4875
176.31	10.4888
176.33	10.4901
176.35	10.4914
176.36	10.4929
176.38	10.4942
176.40	10.4955
176.41	10.4969
176.43	10.4985
176.44	10.4998
176.46	10.5010
176.47	10.5023
176.49	10.5034
176.51	10.5048
176.53	10.5060
176.54	10.5072
176.56	10.5087
176.57	10.5100
176.59	10.5114
176.61	10.5125
176.63	10.5140
176.64	10.5153
176.66	10.5166
176.68	10.5178
176.69	10.5190
176.71	10.5202
176.72	10.5213
176.74	10.5227
176.76	10.5242
176.78	10.5254
176.79	10.5268
176.81	10.5283
176.83	10.5296
176.84	10.5308
176.86	10.5321
176.88	10.5334
176.90	10.5346
176.91	10.5360
176.92	10.5372
176.94	10.5385
176.96	10.5399
176.97	10.5413
176.99	10.5426
177.00	10.5440
177.02	10.5454
177.04	10.5466
177.06	10.5479
177.08	10.5492
177.09	10.5503
177.11	10.5517
177.13	10.5531
177.15	10.5544
177.16	10.5558
177.18	10.5571
177.19	10.5585
177.21	10.5598
177.22	10.5609
177.24	10.5622
177.26	10.5634
177.27	10.5647
177.29	10.5659
177.31	10.5672
177.33	10.5684
177.34	10.5694
177.36	10.5708
177.38	10.5721
177.39	10.5734
177.40	10.5747
177.42	10.5761
177.44	10.5774
177.46	10.5785
177.47	10.5799
177.49	10.5810
177.51	10.5821
177.53	10.5836
177.54	10.5849
177.56	10.5864
177.58	10.5877
177.60	10.5890
177.60	10.5903
177.63	10.5916
177.64	10.5930
177.65	10.5939
177.67	10.5952
177.69	10.5964
177.71	10.5977
177.72	10.5990
177.74	10.6003
177.76	10.6019
177.77	10.6032
177.79	10.6044
177.80	10.6053
177.82	10.6065
177.84	10.6073
177.86	10.6086
177.88	10.6097
177.89	10.6109
177.90	10.6123
177.93	10.6135
177.94	10.6148
177.96	10.6162
177.97	10.6178
177.99	10.6190
178.00	10.6203
178.02	10.6215
178.04	10.6226
178.05	10.6240
178.07	10.6253
178.09	10.6263
178.10	10.6276
178.12	10.6288
178.14	10.6302
178.15	10.6313
178.17	10.6327
178.19	10.6341
178.20	10.6353
178.22	10.6367
178.24	10.6379
178.26	10.6392
178.28	10.6406
178.29	10.6416
178.30	10.6429
178.32	10.6442
178.34	10.6454
178.36	10.6468
178.37	10.6480
178.39	10.6493
178.40	10.6504
178.42	10.6517
178.43	10.6528
178.45	10.6540
178.47	10.6552
178.49	10.6565
178.50	10.6575
178.52	10.6590
178.54	10.6602
178.55	10.6616
178.57	10.6629
178.59	10.6643
178.60	10.6656
178.62	10.6669
178.64	10.6681
178.66	10.6693
178.68	10.6705
178.69	10.6718
178.70	10.6730
178.72	10.6744
178.74	10.6758
178.75	10.6772
178.77	10.6784
178.79	10.6797
178.80	10.6810
178.82	10.6823
178.84	10.6834
178.85	10.6847
178.87	10.6860
178.89	10.6874
178.90	10.6885
178.92	10.6900
178.93	10.6911
178.95	10.6925
178.97	10.6936
178.99	10.6948
179.00	10.6960
179.02	10.6974
179.04	10.6986
179.06	10.6999
179.07	10.7010
179.09	10.7022
179.10	10.7034
179.12	10.7047
179.14	10.7058
179.15	10.7073
179.17	10.7084
179.19	10.7095
179.20	10.7107
179.22	10.7117
179.23	10.7128
179.25	10.7141
179.27	10.7150
179.29	10.7160
179.30	10.7172
179.32	10.7182
179.33	10.7194
179.35	10.7204
179.37	10.7215
179.38	10.7228
179.40	10.7239
179.42	10.7251
179.44	10.7261
179.45	10.7274
179.47	10.7283
179.49	10.7294
179.50	10.7306
179.52	10.7317
179.54	10.7331
179.55	10.7345
179.57	10.7356
179.58	10.7368
179.60	10.7378
179.62	10.7391
179.64	10.7403
179.65	10.7414
179.67	10.7427
179.69	10.7441
179.70	10.7452
179.72	10.7464
179.73	10.7477
179.75	10.7489
179.77	10.7502
179.79	10.7514
179.80	10.7526
179.82	10.7538
179.83	10.7551
179.85	10.7565
179.87	10.7578
179.88	10.7593
179.90	10.7608
179.92	10.7621
179.94	10.7634
179.95	10.7647
179.97	10.7658
179.98	10.7671
180.00	10.7682
180.02	10.7696
180.03	10.7705
180.05	10.7719
180.07	10.7732
180.08	10.7745
180.10	10.7757
180.12	10.7770
180.14	10.7782
180.15	10.7794
180.17	10.7806
180.18	10.7818
180.20	10.7829
180.22	10.7842
180.24	10.7854
180.25	10.7869
180.27	10.7880
180.28	10.7893
180.30	10.7908
180.32	10.7920
180.33	10.7930
180.35	10.7942
180.36	10.7956
180.38	10.7970
180.40	10.7982
180.42	10.7993
180.44	10.8006
180.45	10.8021
180.47	10.8031
180.48	10.8045
180.50	10.8056
180.52	10.8067
180.53	10.8081
180.55	10.8094
180.57	10.8108
180.58	10.8120
180.60	10.8131
180.62	10.8142
180.63	10.8154
180.65	10.8166
180.67	10.8177
180.68	10.8187
180.70	10.8199
180.72	10.8210
180.73	10.8221
180.75	10.8231
180.77	10.8243
180.78	10.8252
180.80	10.8264
180.82	10.8275
180.83	10.8285
180.85	10.8294
180.87	10.8305
180.88	10.8315
180.90	10.8330
180.92	10.8342
180.94	10.8354
180.95	10.8365
180.96	10.8377
180.98	10.8389
181.00	10.8401
181.02	10.8410
181.03	10.8422
181.05	10.8432
181.06	10.8443
181.08	10.8455
181.10	10.8467
181.12	10.8479
181.13	10.8490
181.15	10.8499
181.17	10.8511
181.18	10.8521
181.20	10.8534
181.22	10.8545
181.23	10.8555
181.25	10.8567
181.26	10.8578
181.28	10.8589
181.30	10.8604
181.32	10.8616
181.33	10.8629
181.35	10.8641
181.37	10.8652
181.38	10.8663
181.40	10.8675
181.42	10.8687
181.43	10.8699
181.44	10.8710
181.46	10.8722
181.48	10.8735
181.50	10.8748
181.52	10.8760
181.53	10.8776
181.55	10.8788
181.57	10.8800
181.58	10.8814
181.60	10.8826
181.62	10.8838
181.63	10.8851
181.65	10.8865
181.66	10.8875
181.68	10.8889
181.69	10.8900
181.71	10.8914
181.73	10.8928
181.75	10.8941
181.76	10.8953
181.78	10.8967
181.80	10.8982
181.81	10.8992
181.83	10.9004
181.85	10.9018
181.86	10.9030
181.88	10.9043
181.89	10.9058
181.91	10.9070
181.93	10.9082
181.94	10.9097
181.96	10.9109
181.97	10.9122
182.00	10.9133
182.01	10.9144
182.03	10.9157
182.05	10.9169
182.06	10.9180
182.08	10.9192
182.10	10.9207
182.11	10.9221
182.13	10.9232
182.15	10.9245
182.16	10.9258
182.18	10.9270
182.19	10.9284
182.21	10.9293
182.23	10.9305
182.25	10.9318
182.26	10.9328
182.28	10.9340
182.30	10.9354
182.31	10.9366
182.33	10.9377
182.35	10.9391
182.36	10.9402
182.38	10.9415
182.40	10.9426
182.41	10.9436
182.43	10.9447
182.44	10.9459
182.46	10.9470
182.48	10.9483
182.50	10.9493
182.51	10.9504
182.53	10.9519
182.54	10.9532
182.56	10.9542
182.58	10.9557
182.59	10.9569
182.61	10.9579
182.63	10.9592
182.64	10.9603
182.66	10.9617
182.68	10.9628
182.69	10.9639
182.71	10.9652
182.72	10.9665
182.75	10.9676
182.76	10.9689
182.78	10.9702
182.79	10.9712
182.81	10.9723
182.83	10.9736
182.85	10.9746
182.86	10.9758
182.88	10.9767
182.89	10.9780
182.90	10.9792
182.92	10.9805
182.94	10.9816
182.96	10.9828
182.97	10.9843
182.99	10.9854
183.01	10.9866
183.02	10.9878
183.04	10.9892
183.06	10.9903
183.08	10.9919
183.09	10.9933
183.11	10.9945
183.12	10.9957
183.14	10.9968
183.16	10.9979
183.17	10.9990
183.19	11.0001
183.20	11.0014
183.22	11.0028
183.24	11.0037
183.25	11.0049
183.28	11.0060
183.29	11.0073
183.30	11.0083
183.33	11.0096
183.34	11.0108
183.36	11.0120
183.38	11.0130
183.39	11.0140
183.41	11.0152
183.42	11.0164
183.44	11.0175
183.46	11.0187
183.47	11.0200
183.49	11.0213
183.50	11.0225
183.52	11.0238
183.54	11.0250
183.55	11.0262
183.58	11.0276
183.59	11.0287
183.61	11.0300
183.63	11.0314
183.64	11.0325
183.65	11.0336
183.67	11.0348
183.69	11.0361
183.71	11.0375
183.72	11.0390
183.75	11.0403
183.76	11.0415
183.78	11.0428
183.79	11.0441
183.80	11.0451
183.82	11.0464
183.84	11.0476
183.86	11.0488
183.88	11.0500
183.89	11.0513
183.90	11.0526
183.92	11.0538
183.94	11.0551
183.95	11.0562
183.97	11.0573
183.99	11.0587
184.00	11.0599
184.02	11.0611
184.04	11.0623
184.06	11.0636
184.08	11.0649
184.09	11.0660
184.10	11.0673
184.12	11.0686
184.14	11.0700
184.16	11.0711
184.18	11.0722
184.19	11.0734
184.21	11.0745
184.22	11.0757
184.24	11.0769
184.25	11.0781
184.27	11.0793
184.29	11.0805
184.30	11.0816
184.33	11.0828
184.34	11.0841
184.36	11.0852
184.38	11.0866
184.39	11.0880
184.41	11.0890
184.42	11.0902
184.44	11.0914
184.46	11.0925
184.47	11.0938
184.49	11.0949
184.50	11.0961
184.52	11.0974
184.54	11.0988
184.56	11.1000
184.58	11.1014
184.59	11.1028
184.60	11.1037
184.62	11.1051
184.64	11.1064
184.65	11.1074
184.67	11.1087
184.69	11.1101
184.71	11.1112
184.72	11.1125
184.74	11.1136
184.76	11.1147
184.77	11.1159
184.79	11.1172
184.80	11.1184
184.82	11.1197
184.84	11.1211
184.86	11.1226
184.88	11.1241
184.89	11.1255
184.91	11.1271
184.92	11.1283
184.94	11.1298
184.95	11.1309
184.97	11.1322
184.99	11.1334
185.01	11.1347
185.02	11.1358
185.04	11.1372
185.05	11.1385
185.07	11.1398
185.09	11.1412
185.10	11.1423
185.12	11.1436
185.14	11.1450
185.15	11.1464
185.17	11.1475
185.19	11.1488
185.20	11.1502
185.22	11.1513
185.24	11.1525
185.26	11.1538
185.27	11.1551
185.29	11.1563
185.30	11.1575
185.32	11.1587
185.34	11.1599
185.35	11.1610
185.37	11.1623
185.39	11.1637
185.40	11.1646
185.42	11.1657
185.44	11.1668
185.45	11.1681
185.47	11.1695
185.49	11.1705
185.51	11.1720
185.52	11.1734
185.54	11.1747
185.55	11.1759
185.57	11.1769
185.59	11.1781
185.60	11.1793
185.63	11.1802
185.64	11.1814
185.66	11.1826
185.67	11.1839
185.69	11.1850
185.70	11.1863
185.72	11.1876
185.74	11.1888
185.75	11.1899
185.77	11.1912
185.79	11.1922
185.80	11.1934
185.82	11.1947
185.84	11.1958
185.85	11.1969
185.87	11.1982
185.89	11.1994
185.90	11.2005
185.92	11.2017
185.94	11.2027
185.95	11.2039
185.97	11.2050
185.99	11.2062
186.00	11.2072
186.02	11.2085
186.03	11.2096
186.05	11.2107
186.07	11.2120
186.09	11.2133
186.10	11.2145
186.12	11.2156
186.14	11.2168
186.15	11.2181
186.17	11.2193
186.19	11.2205
186.20	11.2217
186.22	11.2230
186.24	11.2241
186.25	11.2255
186.27	11.2268
186.29	11.2278
186.30	11.2290
186.32	11.2301
186.34	11.2312
186.35	11.2326
186.37	11.2338
186.39	11.2348
186.41	11.2360
186.43	11.2373
186.44	11.2387
186.45	11.2399
186.47	11.2414
186.49	11.2426
186.50	11.2440
186.52	11.2453
186.54	11.2465
186.55	11.2476
186.58	11.2488
186.59	11.2497
186.60	11.2509
186.62	11.2523
186.64	11.2534
186.65	11.2549
186.67	11.2562
186.69	11.2573
186.71	11.2587
186.72	11.2599
186.74	11.2612
186.76	11.2624
186.77	11.2637
186.79	11.2649
186.80	11.2662
186.82	11.2675
186.84	11.2688
186.85	11.2701
186.87	11.2716
186.89	11.2729
186.90	11.2742
186.92	11.2757
186.93	11.2770
186.95	11.2783
186.97	11.2798
186.99	11.2807
187.00	11.2818
187.02	11.2832
187.04	11.2846
187.05	11.2859
187.07	11.2874
187.09	11.2886
187.10	11.2899
187.13	11.2912
187.14	11.2924
187.16	11.2936
187.18	11.2950
187.19	11.2963
187.20	11.2977
187.22	11.2989
187.24	11.3005
187.25	11.3020
187.27	11.3033
187.29	11.3044
187.30	11.3057
187.32	11.3070
187.33	11.3082
187.35	11.3094
187.38	11.3105
187.39	11.3119
187.40	11.3129
187.42	11.3139
187.44	11.3151
187.45	11.3161
187.47	11.3173
187.49	11.3184
187.50	11.3198
187.52	11.3207
187.54	11.3217
187.56	11.3228
187.57	11.3238
187.59	11.3251
187.60	11.3262
187.62	11.3273
187.64	11.3284
187.65	11.3295
187.67	11.3309
187.69	11.3319
187.70	11.3329
187.72	11.3341
187.73	11.3351
187.75	11.3362
187.77	11.3373
187.79	11.3383
187.80	11.3395
187.82	11.3406
187.84	11.3417
187.85	11.3429
187.87	11.3441
187.88	11.3452
187.90	11.3464
187.92	11.3475
187.94	11.3486
187.95	11.3494
187.97	11.3504
187.99	11.3516
188.00	11.3526
188.02	11.3543
188.04	11.3555
188.05	11.3567
188.07	11.3580
188.08	11.3593
188.10	11.3606
188.12	11.3618
188.13	11.3630
188.15	11.3642
188.17	11.3654
188.18	11.3666
188.20	11.3680
188.22	11.3691
188.24	11.3704
188.25	11.3717
188.27	11.3732
188.28	11.3743
188.30	11.3755
188.33	11.3767
188.34	11.3780
188.35	11.3793
188.37	11.3808
188.39	11.3820
188.40	11.3833
188.42	11.3846
188.43	11.3860
188.45	11.3873
188.47	11.3886
188.48	11.3901
188.50	11.3913
188.52	11.3925
188.54	11.3934
188.55	11.3946
188.57	11.3960
188.58	11.3973
188.60	11.3985
188.62	11.3998
188.64	11.4011
188.65	11.4024
188.67	11.4037
188.68	11.4049
188.70	11.4062
188.72	11.4073
188.74	11.4086
188.75	11.4097
188.77	11.4108
188.79	11.4120
188.80	11.4134
188.82	11.4147
188.84	11.4161
188.85	11.4174
188.87	11.4188
188.89	11.4200
188.90	11.4212
188.92	11.4226
188.94	11.4235
188.95	11.4249
188.97	11.4261
188.99	11.4275
189.00	11.4288
189.02	11.4302
189.04	11.4315
189.05	11.4329
189.06	11.4341
189.08	11.4354
189.10	11.4366
189.12	11.4380
189.13	11.4391
189.15	11.4404
189.17	11.4418
189.19	11.4431
189.20	11.4443
189.22	11.4458
189.23	11.4471
189.25	11.4486
189.27	11.4498
189.28	11.4508
189.30	11.4523
189.32	11.4533
189.33	11.4545
189.35	11.4557
189.37	11.4570
189.39	11.4583
189.40	11.4598
189.42	11.4612
189.43	11.4626
189.45	11.4639
189.47	11.4652
189.48	11.4664
189.50	11.4675
189.52	11.4690
189.53	11.4701
189.55	11.4713
189.57	11.4726
189.58	11.4739
189.60	11.4753
189.62	11.4767
189.64	11.4779
189.65	11.4791
189.67	11.4804
189.68	11.4818
189.70	11.4830
189.72	11.4843
189.74	11.4857
189.75	11.4870
189.77	11.4884
189.79	11.4896
189.80	11.4910
189.82	11.4924
189.84	11.4937
189.85	11.4949
189.87	11.4965
189.89	11.4976
189.90	11.4989
189.92	11.5001
189.93	11.5012
189.95	11.5023
189.97	11.5034
189.99	11.5045
190.00	11.5057
190.02	11.5068
190.03	11.5080
190.05	11.5092
190.07	11.5105
190.09	11.5118
190.10	11.5132
190.12	11.5143
190.13	11.5154
190.15	11.5164
190.17	11.5177
190.18	11.5188
190.20	11.5202
190.22	11.5217
190.23	11.5228
190.25	11.5244
190.27	11.5257
190.29	11.5268
190.30	11.5280
190.32	11.5293
190.34	11.5305
190.36	11.5317
190.37	11.5332
190.39	11.5346
190.40	11.5358
190.42	11.5373
190.43	11.5384
190.45	11.5399
190.46	11.5411
190.48	11.5421
190.50	11.5434
190.52	11.5447
190.54	11.5460
190.55	11.5473
190.57	11.5486
190.58	11.5500
190.60	11.5514
190.62	11.5526
190.64	11.5541
190.65	11.5555
190.67	11.5566
190.68	11.5579
190.70	11.5593
190.72	11.5606
190.73	11.5619
190.75	11.5632
190.77	11.5646
190.78	11.5658
190.80	11.5672
190.82	11.5685
190.83	11.5701
190.85	11.5715
190.87	11.5729
190.88	11.5741
190.90	11.5755
190.92	11.5768
190.93	11.5779
190.95	11.5793
190.97	11.5808
190.98	11.5824
191.00	11.5839
191.02	11.5852
191.03	11.5867
191.05	11.5883
191.07	11.5897
191.08	11.5911
191.10	11.5926
191.12	11.5939
191.13	11.5950
191.15	11.5965
191.17	11.5978
191.18	11.5992
191.19	11.6004
191.22	11.6017
191.24	11.6032
191.25	11.6047
191.27	11.6060
191.28	11.6072
191.30	11.6084
191.32	11.6098
191.33	11.6109
191.35	11.6121
191.37	11.6134
191.38	11.6149
191.40	11.6163
191.42	11.6174
191.43	11.6189
191.44	11.6201
191.46	11.6212
191.48	11.6225
191.50	11.6240
191.52	11.6249
191.54	11.6262
191.55	11.6273
191.58	11.6285
191.59	11.6297
191.60	11.6307
191.61	11.6319
191.63	11.6332
191.65	11.6345
191.66	11.6355
191.68	11.6366
191.69	11.6379
191.71	11.6391
191.73	11.6404
191.75	11.6415
191.76	11.6427
191.78	11.6440
191.80	11.6454
191.82	11.6464
191.83	11.6477
191.85	11.6490
191.87	11.6501
191.88	11.6510
191.90	11.6522
191.92	11.6534
191.93	11.6545
191.95	11.6556
191.97	11.6568
191.98	11.6582
192.00	11.6594
192.01	11.6604
192.03	11.6616
192.05	11.6627
192.07	11.6637
192.08	11.6650
192.10	11.6662
192.11	11.6672
192.13	11.6685
192.15	11.6695
192.17	11.6707
192.18	11.6721
192.19	11.6736
192.21	11.6748
192.23	11.6758
192.25	11.6772
192.26	11.6784
192.28	11.6797
192.30	11.6808
192.31	11.6820
192.33	11.6831
192.35	11.6844
192.36	11.6855
192.38	11.6869
192.40	11.6881
192.41	11.6894
192.43	11.6907
192.44	11.6922
192.46	11.6934
192.48	11.6947
192.50	11.6958
192.52	11.6971
192.53	11.6985
192.55	11.7000
192.57	11.7012
192.58	11.7026
192.60	11.7042
192.61	11.7054
192.63	11.7069
192.65	11.7083
192.67	11.7096
192.68	11.7114
192.69	11.7131
192.71	11.7146
192.72	11.7162
192.74	11.7179
192.76	11.7196
192.78	11.7211
192.80	11.7226
192.81	11.7240
192.83	11.7256
192.85	11.7270
192.86	11.7280
192.88	11.7287
192.90	11.7290
192.91	11.7287
192.93	11.7282
192.95	11.7274
192.97	11.7265
192.98	11.7256
193.00	11.7247
193.01	11.7236
193.03	11.7230
193.05	11.7226
193.06	11.7224
193.08	11.7223
193.10	11.7224
193.11	11.7226
193.13	11.7233
193.15	11.7242
193.17	11.7252
193.18	11.7260
193.19	11.7271
193.21	11.7283
193.23	11.7300
193.25	11.7315
193.26	11.7330
193.28	11.7346
193.30	11.7362
193.32	11.7380
193.33	11.7401
193.35	11.7421
193.36	11.7439
193.38	11.7456
193.40	11.7476
193.41	11.7495
193.43	11.7513
193.44	11.7531
193.46	11.7548
193.48	11.7567
193.49	11.7586
193.51	11.7605
193.53	11.7624
193.55	11.7645
193.56	11.7664
193.58	11.7682
193.60	11.7701
193.61	11.7718
193.63	11.7734
193.64	11.7751
193.66	11.7765
193.68	11.7782
193.69	11.7799
193.71	11.7815
193.73	11.7832
193.75	11.7847
193.76	11.7862
193.78	11.7880
193.79	11.7897
193.81	11.7909
193.83	11.7925
193.84	11.7939
193.86	11.7952
193.88	11.7970
193.90	11.7985
193.92	11.8000
193.93	11.8015
193.94	11.8032
193.96	11.8046
193.97	11.8060
193.99	11.8076
194.01	11.8088
194.03	11.8102
194.05	11.8115
194.06	11.8129
194.08	11.8141
194.10	11.8153
194.11	11.8167
194.13	11.8182
194.15	11.8197
194.16	11.8210
194.18	11.8224
194.19	11.8237
194.21	11.8249
194.23	11.8260
194.24	11.8274
194.26	11.8285
194.28	11.8297
194.30	11.8310
194.31	11.8322
194.33	11.8337
194.35	11.8348
194.36	11.8359
194.38	11.8373
194.39	11.8387
194.41	11.8400
194.43	11.8411
194.44	11.8424
194.46	11.8436
194.48	11.8448
194.50	11.8463
194.51	11.8476
194.53	11.8489
194.55	11.8502
194.56	11.8515
194.58	11.8529
194.59	11.8540
194.61	11.8554
194.63	11.8565
194.65	11.8579
194.66	11.8592
194.68	11.8604
194.69	11.8619
194.71	11.8631
194.73	11.8645
194.75	11.8658
194.76	11.8672
194.78	11.8685
194.80	11.8701
194.81	11.8712
194.83	11.8723
194.84	11.8738
194.86	11.8751
194.88	11.8763
194.90	11.8777
194.91	11.8789
194.93	11.8803
194.94	11.8818
194.96	11.8831
194.98	11.8842
195.00	11.8856
195.01	11.8868
195.03	11.8882
195.05	11.8897
195.07	11.8908
195.08	11.8923
195.10	11.8936
195.11	11.8949
195.13	11.8961
195.15	11.8975
195.16	11.8987
195.18	11.9001
195.19	11.9014
195.21	11.9027
195.23	11.9042
195.25	11.9053
195.26	11.9066
195.28	11.9080
195.30	11.9092
195.32	11.9104
195.33	11.9116
195.35	11.9130
195.36	11.9144
195.38	11.9158
195.40	11.9173
195.41	11.9187
195.43	11.9199
195.44	11.9209
195.46	11.9224
195.48	11.9237
195.49	11.9249
195.51	11.9263
195.53	11.9277
195.55	11.9291
195.56	11.9299
195.58	11.9312
195.60	11.9323
195.61	11.9337
195.63	11.9349
195.64	11.9361
195.66	11.9373
195.68	11.9386
195.69	11.9399
195.71	11.9413
195.73	11.9423
195.75	11.9434
195.76	11.9447
195.78	11.9459
195.79	11.9472
195.81	11.9481
195.83	11.9494
195.85	11.9505
195.86	11.9519
195.88	11.9530
195.89	11.9542
195.91	11.9554
195.93	11.9568
195.94	11.9580
195.96	11.9591
195.98	11.9603
196.00	11.9616
196.01	11.9629
196.03	11.9643
196.05	11.9655
196.06	11.9669
196.08	11.9683
196.10	11.9697
196.11	11.9710
196.13	11.9724
196.15	11.9738
196.16	11.9751
196.18	11.9765
196.19	11.9776
196.21	11.9790
196.23	11.9803
196.25	11.9816
196.26	11.9830
196.28	11.9845
196.30	11.9859
196.31	11.9874
196.33	11.9890
196.35	11.9904
196.36	11.9921
196.38	11.9932
196.40	11.9946
196.41	11.9959
196.43	11.9974
196.44	11.9986
196.46	11.9998
196.48	12.0012
196.50	12.0025
196.52	12.0038
196.53	12.0053
196.55	12.0067
196.56	12.0080
196.58	12.0095
196.60	12.0106
196.61	12.0119
196.63	12.0131
196.65	12.0143
196.66	12.0157
196.68	12.0169
196.69	12.0181
196.71	12.0193
196.73	12.0205
196.74	12.0217
196.76	12.0230
196.78	12.0245
196.79	12.0257
196.81	12.0270
196.83	12.0280
196.85	12.0294
196.86	12.0309
196.88	12.0322
196.90	12.0334
196.91	12.0345
196.93	12.0360
196.94	12.0371
196.96	12.0386
196.98	12.0397
196.99	12.0409
197.01	12.0423
197.03	12.0435
197.04	12.0448
197.06	12.0461
197.08	12.0473
197.10	12.0485
197.11	12.0498
197.13	12.0511
197.14	12.0525
197.16	12.0535
197.18	12.0549
197.19	12.0562
197.21	12.0575
197.23	12.0588
197.25	12.0599
197.27	12.0614
197.28	12.0628
197.30	12.0640
197.31	12.0653
197.33	12.0667
197.34	12.0679
197.36	12.0692
197.38	12.0706
197.40	12.0719
197.41	12.0732
197.43	12.0744
197.44	12.0758
197.46	12.0770
197.48	12.0783
197.50	12.0794
197.51	12.0808
197.53	12.0823
197.55	12.0836
197.56	12.0849
197.58	12.0860
197.60	12.0873
197.61	12.0884
197.63	12.0896
197.65	12.0911
197.66	12.0923
197.68	12.0937
197.69	12.0949
197.71	12.0964
197.73	12.0975
197.75	12.0989
197.76	12.1004
197.78	12.1016
197.80	12.1027
197.81	12.1038
197.83	12.1052
197.85	12.1063
197.86	12.1076
197.88	12.1089
197.89	12.1101
197.90	12.1116
197.93	12.1131
197.94	12.1144
197.96	12.1156
197.98	12.1169
198.00	12.1181
198.01	12.1196
198.03	12.1209
198.04	12.1225
198.06	12.1238
198.08	12.1255
198.10	12.1264
198.11	12.1277
198.13	12.1293
198.15	12.1306
198.16	12.1318
198.18	12.1332
198.19	12.1344
198.21	12.1359
198.22	12.1372
198.24	12.1384
198.26	12.1399
198.28	12.1414
198.30	12.1424
198.31	12.1439
198.33	12.1452
198.34	12.1463
198.36	12.1475
198.38	12.1489
198.39	12.1499
198.41	12.1512
198.43	12.1525
198.44	12.1536
198.46	12.1549
198.47	12.1562
198.49	12.1573
198.51	12.1585
198.53	12.1595
198.54	12.1607
198.56	12.1619
198.58	12.1631
198.59	12.1641
198.61	12.1652
198.63	12.1661
198.64	12.1674
198.65	12.1687
198.67	12.1700
198.69	12.1712
198.71	12.1724
198.72	12.1737
198.74	12.1749
198.76	12.1763
198.78	12.1774
198.79	12.1786
198.81	12.1800
198.83	12.1812
198.85	12.1824
198.86	12.1839
198.88	12.1853
198.89	12.1865
198.91	12.1878
198.93	12.1891
198.94	12.1906
198.96	12.1919
198.97	12.1932
198.99	12.1945
199.01	12.1958
199.02	12.1974
199.04	12.1988
199.06	12.2004
199.08	12.2018
199.09	12.2033
199.10	12.2048
199.12	12.2062
199.14	12.2074
199.16	12.2087
199.18	12.2099
199.19	12.2109
199.21	12.2125
199.22	12.2139
199.24	12.2154
199.25	12.2167
199.28	12.2178
199.29	12.2191
199.31	12.2204
199.33	12.2217
199.34	12.2230
199.36	12.2242
199.38	12.2253
199.39	12.2265
199.41	12.2279
199.43	12.2290
199.44	12.2301
199.46	12.2314
199.47	12.2325
199.49	12.2336
199.50	12.2349
199.53	12.2361
199.54	12.2373
199.56	12.2386
199.58	12.2398
199.59	12.2409
199.61	12.2422
199.62	12.2436
199.64	12.2448
199.66	12.2462
199.68	12.2475
199.69	12.2486
199.70	12.2500
199.72	12.2513
199.74	12.2525
199.75	12.2537
199.77	12.2548
199.79	12.2560
199.81	12.2575
199.83	12.2587
199.84	12.2598
199.86	12.2612
199.88	12.2623
199.89	12.2635
199.90	12.2648
199.93	12.2659
199.94	12.2670
199.96	12.2682
199.97	12.2694
199.99	12.2707
