Filename:	D:\TGAdata\„∆√ŒœÈ\20150506\15%5mm.pdid

Temperature (°„C)	Heat Flow Endo Up (mW)
10.67	1.4901
10.67	1.4925
10.67	1.4792
10.68	1.4522
10.68	1.4154
10.68	1.3723
10.67	1.3267
10.68	1.2810
10.68	1.2362
10.68	1.1944
10.68	1.1555
10.69	1.1199
10.70	1.0878
10.70	1.0585
10.71	1.0324
10.71	1.0090
10.72	0.9881
10.74	0.9692
10.75	0.9521
10.75	0.9368
10.76	0.9226
10.78	0.9097
10.79	0.8978
10.80	0.8864
10.81	0.8759
10.83	0.8658
10.84	0.8564
10.85	0.8477
10.86	0.8395
10.87	0.8320
10.89	0.8255
10.91	0.8194
10.93	0.8139
10.94	0.8090
10.95	0.8049
10.96	0.8016
10.98	0.7988
10.99	0.7968
11.01	0.7955
11.02	0.7952
11.04	0.7959
11.05	0.7974
11.07	0.7998
11.08	0.8033
11.10	0.8076
11.11	0.8130
11.13	0.8192
11.14	0.8263
11.16	0.8346
11.18	0.8440
11.19	0.8539
11.21	0.8651
11.23	0.8768
11.24	0.8891
11.25	0.9028
11.27	0.9172
11.29	0.9322
11.30	0.9479
11.32	0.9642
11.33	0.9812
11.35	0.9992
11.37	1.0178
11.38	1.0367
11.40	1.0561
11.42	1.0760
11.43	1.0964
11.45	1.1171
11.46	1.1380
11.48	1.1595
11.50	1.1813
11.51	1.2034
11.53	1.2258
11.55	1.2486
11.56	1.2713
11.58	1.2938
11.59	1.3167
11.61	1.3397
11.62	1.3626
11.64	1.3854
11.66	1.4084
11.68	1.4313
11.70	1.4542
11.71	1.4768
11.73	1.4992
11.74	1.5216
11.76	1.5443
11.77	1.5662
11.79	1.5882
11.81	1.6102
11.83	1.6316
11.84	1.6534
11.86	1.6749
11.87	1.6959
11.89	1.7162
11.91	1.7369
11.93	1.7571
11.94	1.7774
11.95	1.7974
11.98	1.8170
11.99	1.8365
12.00	1.8556
12.02	1.8743
12.04	1.8929
12.05	1.9112
12.07	1.9290
12.08	1.9465
12.10	1.9638
12.12	1.9808
12.14	1.9976
12.16	2.0141
12.18	2.0301
12.19	2.0460
12.21	2.0618
12.23	2.0772
12.24	2.0927
12.25	2.1079
12.27	2.1228
12.29	2.1375
12.30	2.1519
12.33	2.1659
12.34	2.1797
12.35	2.1931
12.37	2.2060
12.39	2.2187
12.40	2.2311
12.42	2.2433
12.44	2.2554
12.46	2.2670
12.48	2.2783
12.49	2.2896
12.50	2.3008
12.52	2.3118
12.53	2.3223
12.55	2.3328
12.57	2.3428
12.58	2.3526
12.60	2.3623
12.62	2.3718
12.63	2.3807
12.65	2.3897
12.66	2.3984
12.69	2.4070
12.71	2.4155
12.73	2.4235
12.74	2.4314
12.75	2.4393
12.78	2.4468
12.79	2.4542
12.80	2.4617
12.82	2.4689
12.83	2.4760
12.85	2.4828
12.87	2.4895
12.89	2.4960
12.90	2.5025
12.92	2.5088
12.94	2.5151
12.95	2.5212
12.97	2.5271
12.99	2.5329
13.00	2.5386
13.02	2.5440
13.04	2.5493
13.05	2.5543
13.07	2.5593
13.08	2.5642
13.10	2.5690
13.12	2.5737
13.14	2.5782
13.15	2.5826
13.17	2.5868
13.18	2.5910
13.20	2.5953
13.22	2.5996
13.23	2.6034
13.25	2.6071
13.27	2.6110
13.28	2.6148
13.30	2.6183
13.32	2.6216
13.34	2.6249
13.35	2.6281
13.37	2.6314
13.38	2.6347
13.40	2.6378
13.42	2.6410
13.43	2.6441
13.45	2.6469
13.47	2.6495
13.48	2.6522
13.50	2.6549
13.51	2.6574
13.53	2.6598
13.55	2.6623
13.57	2.6646
13.58	2.6670
13.60	2.6696
13.62	2.6722
13.64	2.6748
13.65	2.6773
13.67	2.6797
13.68	2.6819
13.70	2.6843
13.71	2.6865
13.73	2.6887
13.75	2.6907
13.77	2.6926
13.79	2.6945
13.80	2.6963
13.82	2.6981
13.83	2.7000
13.85	2.7017
13.87	2.7035
13.88	2.7053
13.90	2.7068
13.92	2.7084
13.93	2.7100
13.96	2.7116
13.97	2.7132
13.99	2.7146
14.00	2.7160
14.02	2.7175
14.03	2.7189
14.05	2.7202
14.08	2.7215
14.09	2.7228
14.10	2.7240
14.13	2.7253
14.14	2.7265
14.15	2.7278
14.17	2.7290
14.18	2.7301
14.20	2.7309
14.22	2.7319
14.24	2.7330
14.25	2.7340
14.27	2.7352
14.29	2.7365
14.30	2.7378
14.32	2.7391
14.34	2.7405
14.35	2.7416
14.37	2.7426
14.39	2.7438
14.40	2.7449
14.42	2.7458
14.44	2.7468
14.45	2.7477
14.47	2.7487
14.48	2.7498
14.50	2.7508
14.52	2.7519
14.54	2.7528
14.55	2.7534
14.57	2.7542
14.59	2.7549
14.60	2.7557
14.62	2.7563
14.64	2.7571
14.65	2.7579
14.67	2.7587
14.69	2.7595
14.70	2.7601
14.72	2.7608
14.73	2.7616
14.75	2.7623
14.77	2.7630
14.79	2.7637
14.80	2.7643
14.82	2.7651
14.84	2.7659
14.85	2.7664
14.87	2.7670
14.88	2.7677
14.90	2.7681
14.92	2.7687
14.94	2.7695
14.96	2.7704
14.98	2.7714
14.99	2.7725
15.00	2.7734
15.02	2.7742
15.04	2.7750
15.06	2.7759
15.07	2.7765
15.09	2.7773
15.10	2.7780
15.12	2.7787
15.14	2.7793
15.15	2.7801
15.17	2.7806
15.19	2.7812
15.21	2.7818
15.22	2.7823
15.23	2.7827
15.25	2.7832
15.27	2.7837
15.29	2.7842
15.30	2.7848
15.32	2.7855
15.33	2.7860
15.35	2.7865
15.37	2.7871
15.39	2.7876
15.40	2.7880
15.42	2.7884
15.44	2.7890
15.45	2.7893
15.47	2.7899
15.48	2.7904
15.50	2.7911
15.52	2.7915
15.53	2.7921
15.55	2.7926
15.57	2.7930
15.59	2.7934
15.60	2.7936
15.62	2.7940
15.64	2.7946
15.65	2.7954
15.67	2.7960
15.69	2.7968
15.70	2.7976
15.72	2.7983
15.74	2.7990
15.75	2.7996
15.77	2.8002
15.78	2.8010
15.80	2.8016
15.82	2.8024
15.84	2.8029
15.86	2.8034
15.87	2.8041
15.89	2.8045
15.90	2.8049
15.92	2.8053
15.94	2.8058
15.95	2.8062
15.97	2.8068
15.98	2.8075
16.00	2.8078
16.02	2.8083
16.04	2.8088
16.05	2.8093
16.07	2.8098
16.08	2.8102
16.10	2.8106
16.11	2.8110
16.13	2.8116
16.15	2.8121
16.17	2.8125
16.19	2.8131
16.20	2.8137
16.22	2.8143
16.23	2.8147
16.25	2.8149
16.27	2.8153
16.29	2.8159
16.30	2.8165
16.32	2.8171
16.34	2.8179
16.35	2.8186
16.37	2.8194
16.39	2.8199
16.40	2.8204
16.42	2.8210
16.43	2.8215
16.45	2.8221
16.47	2.8226
16.49	2.8232
16.50	2.8239
16.52	2.8244
16.54	2.8250
16.55	2.8256
16.57	2.8263
16.59	2.8267
16.61	2.8271
16.62	2.8277
16.64	2.8282
16.65	2.8286
16.68	2.8291
16.69	2.8294
16.70	2.8299
16.72	2.8304
16.73	2.8307
16.75	2.8308
16.77	2.8313
16.78	2.8318
16.80	2.8323
16.82	2.8329
16.84	2.8335
16.86	2.8341
16.88	2.8347
16.89	2.8350
16.91	2.8352
16.93	2.8356
16.94	2.8362
16.95	2.8366
16.97	2.8372
16.99	2.8378
17.01	2.8388
17.02	2.8397
17.04	2.8407
17.05	2.8413
17.07	2.8420
17.09	2.8425
17.11	2.8431
17.12	2.8438
17.14	2.8444
17.15	2.8450
17.17	2.8454
17.19	2.8461
17.20	2.8465
17.22	2.8470
17.24	2.8475
17.26	2.8478
17.27	2.8482
17.29	2.8486
17.30	2.8489
17.32	2.8493
17.33	2.8495
17.35	2.8500
17.37	2.8504
17.39	2.8509
17.40	2.8512
17.42	2.8517
17.44	2.8522
17.45	2.8527
17.47	2.8531
17.49	2.8537
17.50	2.8544
17.52	2.8551
17.54	2.8555
17.55	2.8561
17.57	2.8565
17.59	2.8572
17.61	2.8577
17.62	2.8583
17.64	2.8590
17.65	2.8595
17.67	2.8601
17.68	2.8606
17.70	2.8613
17.72	2.8616
17.74	2.8617
17.75	2.8622
17.77	2.8627
17.79	2.8631
17.80	2.8637
17.82	2.8641
17.84	2.8646
17.85	2.8652
17.86	2.8660
17.89	2.8669
17.91	2.8676
17.92	2.8684
17.94	2.8690
17.95	2.8698
17.97	2.8706
17.99	2.8710
18.00	2.8716
18.02	2.8722
18.04	2.8727
18.05	2.8733
18.07	2.8735
18.09	2.8741
18.10	2.8745
18.12	2.8747
18.14	2.8751
18.15	2.8756
18.17	2.8760
18.19	2.8765
18.20	2.8771
18.22	2.8776
18.23	2.8780
18.25	2.8787
18.28	2.8794
18.29	2.8801
18.30	2.8807
18.32	2.8813
18.33	2.8820
18.35	2.8826
18.37	2.8834
18.38	2.8836
18.40	2.8840
18.42	2.8845
18.44	2.8847
18.46	2.8851
18.47	2.8855
18.49	2.8859
18.50	2.8863
18.52	2.8866
18.54	2.8867
18.55	2.8873
18.57	2.8877
18.59	2.8880
18.61	2.8886
18.62	2.8892
18.63	2.8897
18.65	2.8904
18.67	2.8911
18.68	2.8916
18.70	2.8921
18.72	2.8926
18.74	2.8931
18.75	2.8934
18.77	2.8939
18.78	2.8941
18.80	2.8945
18.82	2.8950
18.83	2.8952
18.84	2.8956
18.87	2.8960
18.89	2.8962
18.90	2.8965
18.92	2.8968
18.94	2.8971
18.95	2.8974
18.97	2.8978
18.99	2.8985
19.00	2.8992
19.02	2.8998
19.03	2.9004
19.05	2.9011
19.07	2.9018
19.09	2.9022
19.10	2.9027
19.12	2.9031
19.13	2.9037
19.15	2.9042
19.17	2.9043
19.19	2.9046
19.20	2.9050
19.22	2.9054
19.23	2.9056
19.25	2.9059
19.27	2.9061
19.28	2.9064
19.30	2.9069
19.32	2.9073
19.34	2.9078
19.35	2.9083
19.37	2.9090
19.39	2.9098
19.40	2.9105
19.42	2.9112
19.43	2.9116
19.45	2.9122
19.47	2.9126
19.48	2.9130
19.50	2.9135
19.52	2.9140
19.53	2.9143
19.55	2.9145
19.57	2.9147
19.58	2.9149
19.60	2.9151
19.63	2.9154
19.64	2.9155
19.65	2.9159
19.67	2.9164
19.69	2.9167
19.71	2.9171
19.72	2.9177
19.73	2.9182
19.75	2.9188
19.77	2.9193
19.78	2.9199
19.80	2.9205
19.81	2.9211
19.84	2.9216
19.85	2.9222
19.87	2.9225
19.88	2.9228
19.90	2.9234
19.91	2.9238
19.94	2.9239
19.95	2.9242
19.96	2.9244
19.98	2.9248
20.00	2.9253
20.01	2.9255
20.03	2.9258
20.05	2.9261
20.07	2.9263
20.08	2.9268
20.10	2.9273
20.12	2.9280
20.13	2.9284
20.15	2.9293
20.16	2.9299
20.18	2.9305
20.20	2.9311
20.21	2.9315
20.23	2.9319
20.25	2.9322
20.27	2.9325
20.28	2.9328
20.30	2.9333
20.32	2.9338
20.33	2.9339
20.35	2.9342
20.36	2.9344
20.38	2.9347
20.40	2.9351
20.41	2.9355
20.43	2.9358
20.45	2.9362
20.47	2.9369
20.48	2.9376
20.50	2.9384
20.52	2.9389
20.53	2.9394
20.55	2.9400
20.56	2.9404
20.58	2.9409
20.59	2.9414
20.61	2.9421
20.63	2.9425
20.65	2.9431
20.67	2.9437
20.68	2.9439
20.70	2.9442
20.72	2.9446
20.73	2.9448
20.75	2.9452
20.77	2.9456
20.78	2.9459
20.80	2.9464
20.81	2.9470
20.83	2.9480
20.84	2.9487
20.87	2.9497
20.88	2.9505
20.89	2.9511
20.91	2.9518
20.93	2.9524
20.95	2.9528
20.96	2.9533
20.98	2.9538
20.99	2.9545
21.01	2.9550
21.03	2.9554
21.05	2.9557
21.06	2.9562
21.07	2.9564
21.09	2.9568
21.12	2.9571
21.13	2.9575
21.15	2.9580
21.17	2.9585
21.18	2.9591
21.20	2.9599
21.21	2.9605
21.23	2.9610
21.25	2.9616
21.26	2.9622
21.28	2.9627
21.30	2.9632
21.31	2.9637
21.33	2.9641
21.34	2.9646
21.36	2.9651
21.38	2.9654
21.40	2.9657
21.41	2.9661
21.43	2.9663
21.45	2.9668
21.46	2.9672
21.48	2.9676
21.50	2.9683
21.51	2.9687
21.53	2.9692
21.54	2.9697
21.56	2.9703
21.57	2.9708
21.59	2.9713
21.61	2.9719
21.63	2.9724
21.64	2.9729
21.66	2.9733
21.68	2.9738
21.70	2.9743
21.71	2.9747
21.73	2.9751
21.75	2.9754
21.76	2.9757
21.78	2.9759
21.79	2.9765
21.81	2.9769
21.83	2.9773
21.84	2.9775
21.86	2.9779
21.88	2.9782
21.90	2.9785
21.91	2.9790
21.93	2.9797
21.95	2.9804
21.96	2.9812
21.98	2.9818
22.00	2.9826
22.01	2.9831
22.03	2.9837
22.04	2.9844
22.06	2.9847
22.07	2.9850
22.09	2.9856
22.11	2.9859
22.13	2.9862
22.15	2.9867
22.16	2.9872
22.18	2.9875
22.20	2.9881
22.21	2.9886
22.23	2.9888
22.25	2.9892
22.26	2.9896
22.28	2.9901
22.29	2.9907
22.30	2.9916
22.32	2.9921
22.34	2.9930
22.36	2.9938
22.38	2.9941
22.39	2.9946
22.41	2.9951
22.43	2.9954
22.44	2.9958
22.45	2.9964
22.48	2.9967
22.49	2.9973
22.51	2.9980
22.53	2.9985
22.55	2.9990
22.56	2.9996
22.57	3.0000
22.58	3.0000
22.61	3.0006
22.63	3.0009
22.64	3.0015
22.66	3.0022
22.68	3.0027
22.69	3.0034
22.71	3.0041
22.73	3.0047
22.74	3.0053
22.76	3.0060
22.77	3.0064
22.79	3.0071
22.81	3.0077
22.82	3.0081
22.84	3.0087
22.86	3.0091
22.87	3.0096
22.89	3.0101
22.91	3.0103
22.93	3.0106
22.94	3.0111
22.95	3.0113
22.98	3.0116
22.99	3.0121
23.01	3.0125
23.02	3.0132
23.04	3.0138
23.06	3.0144
23.07	3.0149
23.09	3.0156
23.10	3.0162
23.13	3.0167
23.14	3.0174
23.15	3.0177
23.17	3.0182
23.19	3.0188
23.20	3.0192
23.22	3.0197
23.23	3.0200
23.25	3.0203
23.27	3.0210
23.29	3.0214
23.30	3.0218
23.32	3.0222
23.34	3.0226
23.36	3.0228
23.38	3.0235
23.39	3.0243
23.40	3.0249
23.42	3.0257
23.43	3.0265
23.45	3.0272
23.47	3.0280
23.49	3.0287
23.50	3.0292
23.52	3.0296
23.54	3.0300
23.55	3.0303
23.57	3.0308
23.58	3.0310
23.60	3.0313
23.62	3.0315
23.64	3.0319
23.65	3.0323
23.67	3.0329
23.69	3.0333
23.70	3.0335
23.72	3.0340
23.74	3.0345
23.75	3.0352
23.77	3.0358
23.78	3.0366
23.80	3.0372
23.82	3.0377
23.84	3.0382
23.85	3.0387
23.87	3.0392
23.89	3.0398
23.90	3.0402
23.92	3.0406
23.94	3.0410
23.95	3.0414
23.97	3.0420
23.98	3.0424
24.00	3.0428
24.02	3.0433
24.04	3.0438
24.05	3.0443
24.07	3.0445
24.09	3.0450
24.10	3.0456
24.12	3.0464
24.13	3.0470
24.15	3.0474
24.16	3.0481
24.18	3.0487
24.20	3.0492
24.21	3.0497
24.23	3.0501
24.25	3.0507
24.27	3.0513
24.28	3.0518
24.30	3.0523
24.31	3.0527
24.33	3.0529
24.35	3.0533
24.36	3.0538
24.38	3.0541
24.40	3.0544
24.41	3.0546
24.43	3.0550
24.45	3.0556
24.46	3.0562
24.48	3.0570
24.50	3.0577
24.52	3.0583
24.53	3.0590
24.55	3.0596
24.56	3.0602
24.58	3.0609
24.59	3.0613
24.62	3.0621
24.64	3.0627
24.65	3.0630
24.66	3.0636
24.68	3.0640
24.70	3.0643
24.72	3.0647
24.73	3.0651
24.75	3.0655
24.76	3.0661
24.78	3.0665
24.80	3.0671
24.81	3.0678
24.83	3.0686
24.85	3.0694
24.86	3.0700
24.88	3.0705
24.90	3.0710
24.91	3.0715
24.93	3.0720
24.95	3.0726
24.97	3.0730
24.98	3.0738
25.00	3.0742
25.02	3.0747
25.03	3.0752
25.05	3.0754
25.06	3.0758
25.08	3.0760
25.10	3.0761
25.12	3.0764
25.13	3.0767
25.15	3.0771
25.16	3.0776
25.18	3.0782
25.20	3.0790
25.22	3.0796
25.23	3.0803
25.25	3.0809
25.27	3.0813
25.28	3.0817
25.30	3.0824
25.31	3.0828
25.33	3.0835
25.35	3.0839
25.37	3.0845
25.38	3.0849
25.39	3.0852
25.41	3.0856
25.43	3.0860
25.45	3.0863
25.46	3.0868
25.48	3.0873
25.50	3.0878
25.51	3.0883
25.52	3.0888
25.55	3.0893
25.57	3.0898
25.58	3.0905
25.59	3.0911
25.61	3.0918
25.63	3.0926
25.65	3.0932
25.66	3.0937
25.68	3.0942
25.69	3.0945
25.71	3.0951
25.73	3.0955
25.75	3.0959
25.76	3.0961
25.78	3.0963
25.79	3.0968
25.81	3.0972
25.83	3.0977
25.84	3.0980
25.86	3.0981
25.88	3.0985
25.90	3.0990
25.91	3.0996
25.93	3.1005
25.94	3.1011
25.96	3.1020
25.98	3.1026
25.99	3.1032
26.01	3.1037
26.03	3.1042
26.05	3.1048
26.06	3.1052
26.07	3.1058
26.09	3.1062
26.11	3.1064
26.13	3.1068
26.14	3.1074
26.16	3.1080
26.18	3.1083
26.19	3.1087
26.21	3.1093
26.23	3.1096
26.25	3.1098
26.26	3.1104
26.28	3.1112
26.29	3.1118
26.31	3.1126
26.32	3.1133
26.34	3.1141
26.36	3.1145
26.37	3.1149
26.39	3.1153
26.42	3.1159
26.43	3.1164
26.45	3.1168
26.46	3.1175
26.48	3.1179
26.49	3.1184
26.51	3.1190
26.53	3.1195
26.54	3.1199
26.56	3.1205
26.58	3.1209
26.59	3.1214
26.61	3.1217
26.63	3.1225
26.64	3.1232
26.66	3.1239
26.68	3.1248
26.69	3.1254
26.70	3.1261
26.73	3.1267
26.75	3.1272
26.76	3.1278
26.78	3.1284
26.80	3.1289
26.81	3.1293
26.82	3.1297
26.84	3.1300
26.86	3.1303
26.88	3.1307
26.90	3.1310
26.91	3.1315
26.93	3.1320
26.94	3.1326
26.96	3.1330
26.98	3.1336
26.99	3.1341
27.00	3.1347
27.02	3.1354
27.04	3.1360
27.06	3.1366
27.07	3.1373
27.09	3.1376
27.11	3.1382
27.13	3.1389
27.14	3.1394
27.15	3.1397
27.17	3.1401
27.19	3.1405
27.20	3.1409
27.22	3.1414
27.24	3.1416
27.25	3.1421
27.28	3.1426
27.30	3.1429
27.30	3.1434
27.32	3.1439
27.33	3.1444
27.35	3.1453
27.37	3.1459
27.39	3.1467
27.41	3.1470
27.43	3.1474
27.45	3.1481
27.46	3.1485
27.48	3.1490
27.49	3.1494
27.51	3.1498
27.52	3.1501
27.54	3.1504
27.56	3.1506
27.57	3.1508
27.59	3.1511
27.61	3.1515
27.63	3.1521
27.64	3.1524
27.66	3.1528
27.68	3.1530
27.69	3.1535
27.70	3.1541
27.73	3.1548
27.74	3.1553
27.76	3.1559
27.78	3.1566
27.79	3.1571
27.80	3.1577
27.82	3.1582
27.84	3.1585
27.86	3.1590
27.88	3.1593
27.90	3.1598
27.91	3.1604
27.93	3.1609
27.94	3.1612
27.96	3.1616
27.98	3.1621
27.99	3.1626
28.01	3.1630
28.03	3.1630
28.04	3.1636
28.06	3.1642
28.07	3.1650
28.09	3.1658
28.11	3.1665
28.13	3.1672
28.14	3.1679
28.16	3.1686
28.17	3.1689
28.19	3.1696
28.21	3.1701
28.23	3.1707
28.24	3.1711
28.26	3.1714
28.27	3.1720
28.29	3.1726
28.31	3.1729
28.32	3.1734
28.34	3.1739
28.36	3.1744
28.38	3.1749
28.39	3.1755
28.41	3.1758
28.42	3.1763
28.44	3.1771
28.45	3.1780
28.48	3.1786
28.49	3.1794
28.50	3.1800
28.53	3.1810
28.54	3.1816
28.56	3.1824
28.57	3.1830
28.59	3.1835
28.61	3.1840
28.63	3.1845
28.64	3.1851
28.65	3.1857
28.67	3.1863
28.69	3.1869
28.71	3.1874
28.73	3.1878
28.74	3.1881
28.75	3.1886
28.77	3.1892
28.79	3.1899
28.80	3.1910
28.82	3.1917
28.84	3.1924
28.86	3.1931
28.87	3.1937
28.88	3.1942
28.91	3.1950
28.93	3.1954
28.94	3.1960
28.96	3.1966
28.97	3.1969
28.99	3.1975
29.00	3.1978
29.02	3.1984
29.04	3.1988
29.06	3.1992
29.07	3.1994
29.09	3.1998
29.11	3.2001
29.13	3.2007
29.14	3.2013
29.15	3.2020
29.17	3.2027
29.19	3.2034
29.21	3.2041
29.23	3.2048
29.24	3.2054
29.25	3.2060
29.28	3.2065
29.29	3.2070
29.30	3.2077
29.32	3.2080
29.34	3.2085
29.35	3.2090
29.38	3.2093
29.39	3.2099
29.41	3.2102
29.42	3.2104
29.44	3.2109
29.46	3.2112
29.47	3.2117
29.48	3.2123
29.50	3.2131
29.53	3.2137
29.54	3.2145
29.56	3.2152
29.57	3.2159
29.59	3.2166
29.60	3.2172
29.62	3.2179
29.64	3.2185
29.65	3.2189
29.67	3.2192
29.69	3.2195
29.71	3.2199
29.73	3.2201
29.74	3.2204
29.75	3.2207
29.77	3.2210
29.79	3.2212
29.81	3.2218
29.82	3.2220
29.84	3.2226
29.86	3.2235
29.88	3.2241
29.89	3.2249
29.90	3.2256
29.92	3.2262
29.94	3.2270
29.96	3.2276
29.98	3.2281
29.99	3.2287
30.01	3.2294
30.03	3.2299
30.04	3.2305
30.05	3.2310
30.07	3.2314
30.09	3.2318
30.11	3.2321
30.13	3.2326
30.14	3.2332
30.15	3.2339
30.18	3.2341
30.19	3.2348
30.21	3.2353
30.22	3.2360
30.24	3.2368
30.26	3.2374
30.28	3.2381
30.29	3.2385
30.31	3.2390
30.32	3.2394
30.34	3.2400
30.35	3.2405
30.37	3.2411
30.39	3.2414
30.40	3.2418
30.43	3.2424
30.44	3.2428
30.46	3.2433
30.48	3.2436
30.49	3.2441
30.51	3.2446
30.52	3.2449
30.54	3.2451
30.55	3.2455
30.57	3.2461
30.59	3.2466
30.60	3.2474
30.62	3.2482
30.64	3.2489
30.65	3.2493
30.68	3.2498
30.68	3.2505
30.70	3.2511
30.72	3.2514
30.74	3.2518
30.75	3.2522
30.77	3.2525
30.79	3.2529
30.80	3.2535
30.82	3.2538
30.84	3.2544
30.85	3.2549
30.87	3.2553
30.89	3.2555
30.90	3.2558
30.92	3.2565
30.94	3.2574
30.95	3.2580
30.97	3.2588
30.99	3.2595
31.01	3.2601
31.02	3.2606
31.03	3.2612
31.05	3.2617
31.07	3.2622
31.09	3.2626
31.10	3.2630
31.12	3.2634
31.14	3.2640
31.16	3.2644
31.17	3.2649
31.19	3.2654
31.21	3.2656
31.23	3.2663
31.24	3.2667
31.25	3.2670
31.27	3.2675
31.29	3.2679
31.30	3.2685
31.32	3.2691
31.34	3.2698
31.35	3.2702
31.37	3.2707
31.38	3.2715
31.40	3.2719
31.43	3.2724
31.44	3.2728
31.45	3.2734
31.46	3.2739
31.48	3.2743
31.50	3.2748
31.53	3.2753
31.54	3.2758
31.55	3.2760
31.57	3.2765
31.59	3.2767
31.60	3.2771
31.62	3.2776
31.63	3.2782
31.65	3.2789
31.67	3.2796
31.68	3.2803
31.70	3.2809
31.72	3.2813
31.74	3.2820
31.75	3.2826
31.77	3.2830
31.78	3.2835
31.80	3.2841
31.82	3.2845
31.83	3.2850
31.85	3.2854
31.87	3.2857
31.88	3.2860
31.90	3.2864
31.92	3.2866
31.94	3.2872
31.95	3.2877
31.97	3.2882
31.98	3.2888
32.00	3.2896
32.02	3.2903
32.04	3.2909
32.05	3.2913
32.07	3.2921
32.09	3.2929
32.10	3.2936
32.12	3.2942
32.14	3.2947
32.15	3.2953
32.17	3.2958
32.19	3.2964
32.20	3.2968
32.22	3.2972
32.23	3.2977
32.25	3.2981
32.27	3.2985
32.29	3.2991
32.30	3.2997
32.32	3.3000
32.34	3.3004
32.35	3.3013
32.37	3.3017
32.38	3.3024
32.40	3.3031
32.42	3.3039
32.44	3.3045
32.45	3.3053
32.47	3.3057
32.48	3.3065
32.50	3.3069
32.51	3.3074
32.53	3.3079
32.55	3.3085
32.57	3.3090
32.59	3.3095
32.60	3.3101
32.61	3.3105
32.63	3.3111
32.65	3.3116
32.67	3.3120
32.68	3.3123
32.70	3.3130
32.72	3.3135
32.74	3.3144
32.74	3.3151
32.77	3.3160
32.79	3.3166
32.80	3.3173
32.82	3.3181
32.83	3.3185
32.85	3.3189
32.87	3.3194
32.88	3.3196
32.90	3.3200
32.92	3.3202
32.93	3.3207
32.95	3.3211
32.97	3.3215
32.98	3.3220
33.00	3.3224
33.02	3.3229
33.03	3.3235
33.05	3.3240
33.07	3.3248
33.08	3.3253
33.09	3.3261
33.11	3.3268
33.13	3.3275
33.15	3.3281
33.17	3.3286
33.18	3.3291
33.20	3.3297
33.22	3.3303
33.23	3.3307
33.25	3.3313
33.27	3.3317
33.28	3.3322
33.30	3.3324
33.32	3.3328
33.33	3.3334
33.35	3.3336
33.37	3.3341
33.39	3.3344
33.40	3.3347
33.42	3.3353
33.43	3.3359
33.45	3.3365
33.46	3.3373
33.48	3.3379
33.50	3.3386
33.51	3.3391
33.53	3.3396
33.55	3.3399
33.56	3.3403
33.58	3.3408
33.60	3.3413
33.62	3.3418
33.63	3.3422
33.65	3.3425
33.66	3.3427
33.68	3.3432
33.70	3.3435
33.72	3.3436
33.73	3.3440
33.74	3.3444
33.76	3.3450
33.78	3.3456
33.80	3.3464
33.82	3.3472
33.83	3.3480
33.84	3.3485
33.86	3.3491
33.88	3.3498
33.89	3.3502
33.91	3.3508
33.93	3.3513
33.95	3.3519
33.97	3.3523
33.98	3.3530
34.00	3.3537
34.02	3.3542
34.03	3.3547
34.05	3.3550
34.06	3.3554
34.08	3.3559
34.09	3.3563
34.11	3.3569
34.13	3.3576
34.15	3.3583
34.17	3.3590
34.18	3.3598
34.20	3.3606
34.21	3.3614
34.23	3.3619
34.25	3.3625
34.27	3.3632
34.28	3.3639
34.30	3.3644
34.31	3.3650
34.33	3.3654
34.34	3.3659
34.36	3.3663
34.38	3.3667
34.40	3.3669
34.42	3.3673
34.43	3.3678
34.45	3.3683
34.46	3.3689
34.48	3.3694
34.49	3.3703
34.51	3.3710
34.53	3.3716
34.55	3.3724
34.56	3.3730
34.58	3.3737
34.59	3.3742
34.61	3.3747
34.63	3.3753
34.65	3.3757
34.66	3.3763
34.68	3.3766
34.69	3.3769
34.71	3.3773
34.73	3.3777
34.74	3.3781
34.76	3.3786
34.77	3.3794
34.80	3.3798
34.81	3.3804
34.83	3.3811
34.84	3.3818
34.86	3.3824
34.87	3.3830
34.89	3.3835
34.91	3.3841
34.93	3.3850
34.95	3.3856
34.96	3.3862
34.98	3.3868
34.99	3.3871
35.01	3.3876
35.03	3.3879
35.05	3.3882
35.06	3.3888
35.08	3.3892
35.09	3.3897
35.11	3.3900
35.13	3.3905
35.15	3.3909
35.16	3.3914
35.18	3.3922
35.20	3.3927
35.21	3.3935
35.23	3.3942
35.24	3.3948
35.26	3.3955
35.28	3.3961
35.30	3.3966
35.31	3.3972
35.33	3.3979
35.34	3.3984
35.36	3.3989
35.37	3.3993
35.39	3.3996
35.41	3.4002
35.43	3.4007
35.45	3.4012
35.46	3.4015
35.48	3.4021
35.49	3.4025
35.51	3.4030
35.52	3.4035
35.54	3.4042
35.56	3.4051
35.58	3.4059
35.59	3.4065
35.61	3.4071
35.63	3.4077
35.65	3.4083
35.66	3.4089
35.68	3.4093
35.70	3.4096
35.71	3.4100
35.73	3.4102
35.74	3.4107
35.76	3.4114
35.78	3.4121
35.80	3.4127
35.81	3.4132
35.83	3.4135
35.84	3.4140
35.86	3.4144
35.88	3.4149
35.89	3.4154
35.90	3.4161
35.92	3.4168
35.94	3.4175
35.96	3.4183
35.98	3.4189
35.99	3.4195
36.01	3.4200
36.02	3.4207
36.04	3.4212
36.06	3.4217
36.08	3.4220
36.09	3.4224
36.11	3.4230
36.13	3.4233
36.15	3.4240
36.16	3.4245
36.18	3.4248
36.20	3.4251
36.22	3.4255
36.23	3.4261
36.24	3.4267
36.26	3.4273
36.28	3.4281
36.29	3.4288
36.30	3.4295
36.32	3.4301
36.34	3.4307
36.36	3.4314
36.38	3.4317
36.39	3.4322
36.40	3.4329
36.42	3.4333
36.45	3.4335
36.46	3.4342
36.47	3.4348
36.49	3.4352
36.51	3.4358
36.52	3.4362
36.54	3.4367
36.56	3.4371
36.58	3.4379
36.59	3.4386
36.60	3.4394
36.63	3.4401
36.65	3.4409
36.66	3.4416
36.68	3.4423
36.69	3.4429
36.71	3.4435
36.73	3.4442
36.74	3.4446
36.76	3.4451
36.77	3.4456
36.79	3.4462
36.81	3.4467
36.83	3.4474
36.84	3.4478
36.86	3.4483
36.88	3.4489
36.89	3.4492
36.91	3.4497
36.93	3.4500
36.95	3.4506
36.96	3.4515
36.98	3.4523
36.99	3.4529
37.01	3.4536
37.02	3.4540
37.04	3.4546
37.06	3.4553
37.08	3.4557
37.09	3.4564
37.10	3.4570
37.13	3.4576
37.14	3.4581
37.16	3.4584
37.18	3.4589
37.19	3.4594
37.21	3.4597
37.23	3.4601
37.24	3.4605
37.25	3.4608
37.27	3.4615
37.29	3.4621
37.31	3.4628
37.33	3.4634
37.34	3.4641
37.36	3.4648
37.38	3.4654
37.39	3.4660
37.41	3.4667
37.43	3.4673
37.44	3.4680
37.46	3.4686
37.48	3.4692
37.49	3.4697
37.51	3.4703
37.52	3.4709
37.54	3.4714
37.56	3.4717
37.58	3.4720
37.59	3.4725
37.60	3.4729
37.63	3.4734
37.64	3.4740
37.66	3.4747
37.68	3.4755
37.70	3.4763
37.71	3.4771
37.73	3.4777
37.74	3.4783
37.76	3.4789
37.77	3.4796
37.80	3.4802
37.81	3.4807
37.83	3.4812
37.84	3.4816
37.86	3.4822
37.88	3.4827
37.89	3.4830
37.91	3.4835
37.93	3.4840
37.94	3.4844
37.95	3.4849
37.97	3.4853
37.99	3.4857
38.01	3.4864
38.02	3.4872
38.04	3.4879
38.06	3.4885
38.08	3.4891
38.09	3.4896
38.11	3.4903
38.13	3.4910
38.14	3.4918
38.16	3.4924
38.17	3.4929
38.19	3.4935
38.20	3.4940
38.22	3.4944
38.24	3.4949
38.25	3.4952
38.27	3.4954
38.29	3.4958
38.31	3.4962
38.33	3.4966
38.34	3.4971
38.36	3.4978
38.38	3.4985
38.39	3.4990
38.40	3.4997
38.42	3.5004
38.44	3.5009
38.46	3.5017
38.47	3.5021
38.49	3.5028
38.51	3.5033
38.52	3.5036
38.54	3.5041
38.56	3.5047
38.58	3.5052
38.59	3.5057
38.61	3.5061
38.63	3.5064
38.64	3.5069
38.65	3.5073
38.67	3.5078
38.69	3.5086
38.71	3.5092
38.72	3.5100
38.74	3.5105
38.76	3.5113
38.77	3.5119
38.79	3.5123
38.80	3.5130
38.82	3.5135
38.84	3.5141
38.86	3.5147
38.88	3.5150
38.89	3.5155
38.90	3.5161
38.92	3.5165
38.94	3.5172
38.95	3.5178
38.97	3.5182
38.99	3.5186
39.01	3.5191
39.02	3.5194
39.04	3.5200
39.06	3.5208
39.08	3.5216
39.09	3.5224
39.11	3.5233
39.13	3.5240
39.14	3.5245
39.15	3.5254
39.17	3.5258
39.19	3.5263
39.21	3.5269
39.22	3.5272
39.24	3.5275
39.26	3.5280
39.27	3.5285
39.29	3.5289
39.30	3.5295
39.32	3.5298
39.34	3.5302
39.36	3.5308
39.38	3.5314
39.39	3.5318
39.40	3.5327
39.42	3.5332
39.44	3.5337
39.45	3.5343
39.47	3.5347
39.48	3.5354
39.50	3.5362
39.52	3.5367
39.54	3.5374
39.55	3.5380
39.58	3.5387
39.59	3.5392
39.61	3.5397
39.63	3.5400
39.64	3.5405
39.65	3.5408
39.67	3.5414
39.69	3.5418
39.71	3.5425
39.72	3.5430
39.74	3.5436
39.75	3.5444
39.77	3.5453
39.79	3.5461
39.80	3.5471
39.82	3.5478
39.84	3.5484
39.86	3.5492
39.87	3.5497
39.89	3.5502
39.91	3.5508
39.93	3.5515
39.94	3.5520
39.95	3.5527
39.97	3.5532
39.99	3.5537
40.01	3.5543
40.02	3.5548
40.04	3.5553
40.06	3.5557
40.08	3.5562
40.09	3.5569
40.10	3.5575
40.12	3.5583
40.14	3.5591
40.15	3.5596
40.17	3.5604
40.19	3.5611
40.20	3.5616
40.22	3.5622
40.23	3.5629
40.25	3.5635
40.27	3.5641
40.29	3.5647
40.30	3.5651
40.32	3.5655
40.34	3.5660
40.36	3.5664
40.37	3.5670
40.39	3.5674
40.40	3.5679
40.42	3.5686
40.43	3.5692
40.45	3.5700
40.47	3.5706
40.49	3.5713
40.50	3.5720
40.52	3.5726
40.54	3.5733
40.56	3.5738
40.58	3.5744
40.59	3.5748
40.60	3.5756
40.62	3.5760
40.64	3.5766
40.65	3.5774
40.67	3.5778
40.69	3.5781
40.71	3.5786
40.72	3.5790
40.74	3.5794
40.76	3.5800
40.77	3.5805
40.79	3.5811
40.80	3.5820
40.82	3.5826
40.83	3.5833
40.85	3.5839
40.87	3.5847
40.88	3.5856
40.90	3.5862
40.92	3.5868
40.93	3.5874
40.95	3.5878
40.97	3.5884
40.99	3.5890
41.00	3.5896
41.01	3.5900
41.03	3.5903
41.05	3.5908
41.07	3.5912
41.08	3.5915
41.09	3.5920
41.11	3.5925
41.13	3.5931
41.15	3.5941
41.17	3.5949
41.18	3.5955
41.20	3.5962
41.22	3.5969
41.24	3.5976
41.25	3.5983
41.27	3.5990
41.29	3.5995
41.30	3.6000
41.32	3.6006
41.34	3.6013
41.35	3.6016
41.37	3.6021
41.38	3.6026
41.40	3.6032
41.42	3.6038
41.44	3.6040
41.45	3.6047
41.47	3.6053
41.49	3.6061
41.50	3.6070
41.52	3.6077
41.53	3.6083
41.55	3.6091
41.57	3.6097
41.59	3.6104
41.60	3.6110
41.62	3.6115
41.63	3.6121
41.65	3.6125
41.66	3.6130
41.68	3.6135
41.70	3.6139
41.72	3.6143
41.73	3.6147
41.75	3.6153
41.77	3.6158
41.78	3.6163
41.80	3.6169
41.82	3.6174
41.83	3.6180
41.85	3.6188
41.87	3.6196
41.89	3.6204
41.90	3.6209
41.92	3.6214
41.93	3.6222
41.95	3.6230
41.97	3.6237
41.99	3.6246
42.00	3.6253
42.02	3.6258
42.03	3.6260
42.05	3.6264
42.07	3.6270
42.09	3.6275
42.10	3.6281
42.11	3.6285
42.14	3.6292
42.15	3.6297
42.17	3.6302
42.18	3.6310
42.20	3.6317
42.22	3.6325
42.23	3.6332
42.25	3.6340
42.27	3.6347
42.28	3.6355
42.30	3.6362
42.32	3.6368
42.33	3.6372
42.35	3.6379
42.37	3.6381
42.39	3.6385
42.40	3.6390
42.42	3.6395
42.44	3.6401
42.45	3.6407
42.47	3.6410
42.48	3.6416
42.50	3.6421
42.52	3.6429
42.53	3.6436
42.55	3.6445
42.56	3.6452
42.58	3.6459
42.59	3.6468
42.62	3.6474
42.63	3.6479
42.65	3.6483
42.67	3.6487
42.68	3.6493
42.70	3.6499
42.72	3.6504
42.74	3.6510
42.75	3.6517
42.77	3.6523
42.78	3.6530
42.80	3.6535
42.82	3.6541
42.84	3.6547
42.85	3.6552
42.87	3.6558
42.88	3.6566
42.90	3.6572
42.92	3.6581
42.93	3.6588
42.95	3.6597
42.96	3.6604
42.98	3.6611
42.99	3.6618
43.02	3.6623
43.03	3.6629
43.05	3.6636
43.07	3.6639
43.08	3.6645
43.09	3.6650
43.12	3.6656
43.14	3.6661
43.15	3.6667
43.16	3.6674
43.18	3.6678
43.20	3.6683
43.22	3.6688
43.23	3.6694
43.25	3.6702
43.27	3.6708
43.28	3.6716
43.30	3.6723
43.31	3.6730
43.33	3.6738
43.35	3.6742
43.37	3.6748
43.38	3.6753
43.40	3.6758
43.42	3.6763
43.44	3.6770
43.45	3.6775
43.47	3.6782
43.48	3.6787
43.49	3.6792
43.51	3.6797
43.53	3.6804
43.55	3.6809
43.56	3.6817
43.58	3.6825
43.59	3.6832
43.61	3.6841
43.63	3.6850
43.65	3.6858
43.66	3.6865
43.68	3.6872
43.70	3.6878
43.71	3.6884
43.73	3.6889
43.74	3.6892
43.77	3.6899
43.78	3.6906
43.80	3.6911
43.82	3.6914
43.83	3.6921
43.84	3.6927
43.87	3.6932
43.88	3.6938
43.90	3.6943
43.91	3.6951
43.93	3.6960
43.95	3.6969
43.96	3.6975
43.98	3.6983
43.99	3.6989
44.01	3.6995
44.03	3.7002
44.05	3.7008
44.07	3.7014
44.08	3.7020
44.09	3.7024
44.10	3.7029
44.13	3.7035
44.15	3.7040
44.16	3.7045
44.18	3.7050
44.20	3.7056
44.22	3.7060
44.23	3.7064
44.24	3.7069
44.27	3.7077
44.28	3.7084
44.29	3.7092
44.30	3.7097
44.33	3.7105
44.35	3.7110
44.36	3.7117
44.38	3.7122
44.39	3.7125
44.41	3.7132
44.43	3.7137
44.44	3.7143
44.46	3.7149
44.48	3.7155
44.49	3.7161
44.51	3.7164
44.53	3.7169
44.54	3.7173
44.56	3.7179
44.58	3.7185
44.59	3.7190
44.61	3.7197
44.63	3.7205
44.65	3.7214
44.66	3.7221
44.68	3.7227
44.70	3.7235
44.71	3.7240
44.73	3.7248
44.74	3.7254
44.77	3.7261
44.78	3.7267
44.80	3.7271
44.81	3.7277
44.83	3.7283
44.84	3.7287
44.86	3.7292
44.88	3.7295
44.89	3.7298
44.91	3.7303
44.93	3.7309
44.95	3.7315
44.96	3.7323
44.98	3.7333
44.99	3.7340
45.01	3.7348
45.03	3.7356
45.04	3.7363
45.06	3.7367
45.08	3.7372
45.09	3.7379
45.11	3.7384
45.13	3.7391
45.14	3.7397
45.16	3.7403
45.18	3.7408
45.19	3.7415
45.21	3.7419
45.23	3.7425
45.24	3.7429
45.26	3.7433
45.27	3.7440
45.29	3.7447
45.31	3.7455
45.33	3.7461
45.34	3.7470
45.36	3.7476
45.38	3.7482
45.40	3.7487
45.41	3.7493
45.43	3.7500
45.45	3.7506
45.46	3.7512
45.48	3.7520
45.49	3.7525
45.51	3.7528
45.53	3.7534
45.55	3.7537
45.56	3.7541
45.58	3.7546
45.59	3.7550
45.61	3.7555
45.63	3.7563
45.65	3.7570
45.66	3.7576
45.68	3.7583
45.69	3.7588
45.71	3.7595
45.73	3.7601
45.74	3.7608
45.76	3.7614
45.78	3.7619
45.80	3.7625
45.81	3.7632
45.83	3.7636
45.84	3.7640
45.86	3.7644
45.88	3.7649
45.89	3.7653
45.91	3.7658
45.93	3.7665
45.94	3.7671
45.96	3.7675
45.98	3.7682
45.99	3.7689
46.01	3.7697
46.02	3.7703
46.04	3.7712
46.06	3.7721
46.08	3.7727
46.09	3.7734
46.11	3.7741
46.12	3.7745
46.14	3.7751
46.16	3.7757
46.17	3.7762
46.19	3.7768
46.21	3.7772
46.23	3.7777
46.24	3.7781
46.26	3.7787
46.28	3.7792
46.30	3.7796
46.31	3.7801
46.33	3.7808
46.34	3.7817
46.36	3.7825
46.38	3.7831
46.39	3.7839
46.41	3.7846
46.43	3.7854
46.44	3.7861
46.46	3.7866
46.48	3.7873
46.49	3.7878
46.51	3.7884
46.52	3.7888
46.55	3.7893
46.56	3.7898
46.58	3.7903
46.59	3.7910
46.61	3.7916
46.63	3.7922
46.64	3.7926
46.65	3.7934
46.67	3.7941
46.69	3.7949
46.71	3.7955
46.73	3.7963
46.74	3.7969
46.76	3.7975
46.77	3.7978
46.79	3.7984
46.81	3.7990
46.83	3.7996
46.84	3.8000
46.86	3.8007
46.88	3.8012
46.89	3.8016
46.91	3.8021
46.93	3.8027
46.94	3.8030
46.96	3.8036
46.98	3.8041
46.99	3.8046
47.01	3.8052
47.03	3.8060
47.04	3.8067
47.06	3.8076
47.08	3.8082
47.09	3.8090
47.11	3.8095
47.13	3.8102
47.15	3.8109
47.16	3.8114
47.18	3.8121
47.19	3.8126
47.21	3.8133
47.23	3.8140
47.24	3.8145
47.26	3.8150
47.27	3.8157
47.29	3.8161
47.31	3.8166
47.33	3.8171
47.34	3.8175
47.36	3.8183
47.38	3.8191
47.39	3.8198
47.41	3.8207
47.42	3.8215
47.44	3.8222
47.46	3.8228
47.48	3.8236
47.49	3.8243
47.51	3.8248
47.53	3.8254
47.54	3.8258
47.56	3.8264
47.58	3.8271
47.59	3.8276
47.61	3.8280
47.63	3.8287
47.64	3.8293
47.66	3.8298
47.68	3.8302
47.70	3.8307
47.70	3.8314
47.72	3.8324
47.74	3.8331
47.75	3.8339
47.77	3.8347
47.79	3.8352
47.81	3.8360
47.83	3.8367
47.84	3.8372
47.85	3.8379
47.87	3.8386
47.89	3.8391
47.91	3.8397
47.92	3.8403
47.94	3.8410
47.96	3.8418
47.98	3.8424
47.99	3.8429
48.01	3.8433
48.02	3.8440
48.04	3.8445
48.06	3.8452
48.08	3.8462
48.09	3.8469
48.11	3.8476
48.13	3.8483
48.14	3.8488
48.16	3.8494
48.18	3.8501
48.20	3.8510
48.21	3.8515
48.23	3.8521
48.24	3.8527
48.26	3.8533
48.27	3.8535
48.29	3.8541
48.31	3.8547
48.33	3.8552
48.34	3.8558
48.36	3.8564
48.38	3.8571
48.39	3.8578
48.41	3.8586
48.42	3.8593
48.44	3.8601
48.46	3.8609
48.48	3.8615
48.50	3.8623
48.51	3.8628
48.53	3.8632
48.55	3.8637
48.56	3.8642
48.58	3.8649
48.59	3.8655
48.60	3.8660
48.63	3.8665
48.64	3.8669
48.66	3.8675
48.68	3.8677
48.69	3.8682
48.70	3.8687
48.72	3.8693
48.74	3.8701
48.76	3.8706
48.77	3.8716
48.79	3.8722
48.81	3.8730
48.83	3.8736
48.84	3.8744
48.86	3.8749
48.88	3.8756
48.89	3.8762
48.91	3.8768
48.93	3.8773
48.95	3.8778
48.96	3.8784
48.97	3.8788
48.99	3.8794
49.00	3.8798
49.02	3.8804
49.04	3.8810
49.05	3.8814
49.07	3.8820
49.09	3.8828
49.10	3.8835
49.12	3.8843
49.14	3.8851
49.16	3.8857
49.17	3.8862
49.19	3.8868
49.21	3.8874
49.23	3.8879
49.24	3.8883
49.26	3.8891
49.27	3.8896
49.29	3.8902
49.31	3.8907
49.32	3.8911
49.34	3.8916
49.36	3.8922
49.37	3.8926
49.39	3.8931
49.41	3.8936
49.43	3.8944
49.44	3.8953
49.46	3.8962
49.47	3.8969
49.49	3.8976
49.51	3.8982
49.52	3.8988
49.54	3.8994
49.56	3.9001
49.57	3.9005
49.59	3.9011
49.61	3.9016
49.63	3.9022
49.64	3.9027
49.65	3.9031
49.68	3.9036
49.69	3.9039
49.71	3.9044
49.73	3.9046
49.74	3.9052
49.76	3.9060
49.77	3.9067
49.79	3.9076
49.81	3.9084
49.83	3.9092
49.84	3.9099
49.85	3.9106
49.87	3.9112
49.89	3.9118
49.91	3.9123
49.92	3.9128
49.94	3.9133
49.96	3.9139
49.98	3.9145
49.99	3.9150
50.00	3.9156
50.02	3.9162
50.04	3.9169
50.05	3.9174
50.07	3.9179
50.09	3.9185
50.11	3.9193
50.12	3.9200
50.14	3.9208
50.16	3.9215
50.17	3.9223
50.19	3.9230
50.20	3.9237
50.22	3.9243
50.24	3.9251
50.26	3.9259
50.27	3.9262
50.29	3.9267
50.30	3.9274
50.32	3.9277
50.34	3.9284
50.35	3.9288
50.37	3.9293
50.39	3.9299
50.41	3.9304
50.43	3.9308
50.44	3.9316
50.45	3.9323
50.47	3.9329
50.48	3.9337
50.50	3.9345
50.52	3.9351
50.54	3.9360
50.55	3.9366
50.57	3.9373
50.59	3.9379
50.60	3.9388
50.62	3.9394
50.64	3.9399
50.65	3.9405
50.67	3.9407
50.69	3.9413
50.70	3.9419
50.72	3.9422
50.74	3.9427
50.75	3.9432
50.77	3.9439
50.79	3.9445
50.80	3.9453
50.82	3.9460
50.84	3.9468
50.85	3.9475
50.87	3.9480
50.89	3.9486
50.91	3.9496
50.93	3.9501
50.94	3.9509
50.95	3.9514
50.97	3.9520
50.99	3.9526
51.00	3.9530
51.02	3.9536
51.04	3.9539
51.05	3.9546
51.07	3.9551
51.08	3.9557
51.10	3.9564
51.13	3.9569
51.14	3.9576
51.16	3.9584
51.17	3.9589
51.18	3.9595
51.20	3.9603
51.22	3.9610
51.23	3.9619
51.25	3.9625
51.27	3.9634
51.29	3.9640
51.30	3.9646
51.32	3.9652
51.34	3.9657
51.35	3.9660
51.37	3.9667
51.39	3.9672
51.40	3.9678
51.42	3.9683
51.43	3.9688
51.45	3.9693
51.47	3.9698
51.49	3.9704
51.50	3.9709
51.52	3.9716
51.54	3.9722
51.55	3.9729
51.57	3.9735
51.59	3.9741
51.60	3.9748
51.62	3.9753
51.63	3.9757
51.65	3.9762
51.67	3.9767
51.68	3.9773
51.70	3.9780
51.72	3.9784
51.74	3.9790
51.76	3.9795
51.77	3.9800
51.79	3.9808
51.80	3.9811
51.82	3.9818
51.84	3.9824
51.86	3.9830
51.88	3.9835
51.89	3.9842
51.90	3.9849
51.93	3.9855
51.94	3.9862
51.95	3.9869
51.97	3.9875
51.99	3.9880
52.01	3.9884
52.02	3.9888
52.04	3.9892
52.05	3.9896
52.07	3.9899
52.09	3.9905
52.11	3.9911
52.12	3.9917
52.14	3.9923
52.15	3.9929
52.17	3.9935
52.19	3.9942
52.20	3.9950
52.22	3.9955
52.24	3.9962
52.25	3.9969
52.27	3.9976
52.29	3.9982
52.30	3.9988
52.32	3.9993
52.34	3.9998
52.36	4.0003
52.37	4.0008
52.38	4.0013
52.40	4.0017
52.43	4.0022
52.44	4.0028
52.45	4.0031
52.47	4.0035
52.48	4.0042
52.50	4.0050
52.52	4.0059
52.53	4.0067
52.55	4.0076
52.58	4.0081
52.59	4.0087
52.60	4.0094
52.63	4.0100
52.63	4.0106
52.65	4.0111
52.67	4.0115
52.68	4.0119
52.70	4.0124
52.72	4.0127
52.73	4.0133
52.75	4.0138
52.77	4.0143
52.78	4.0148
52.80	4.0151
52.82	4.0156
52.83	4.0164
52.85	4.0171
52.87	4.0178
52.88	4.0186
52.90	4.0192
52.92	4.0199
52.94	4.0206
52.95	4.0212
52.97	4.0218
52.98	4.0224
53.00	4.0230
53.02	4.0237
53.03	4.0240
53.05	4.0245
53.07	4.0248
53.08	4.0254
53.10	4.0259
53.12	4.0265
53.13	4.0271
53.15	4.0275
53.17	4.0282
53.19	4.0289
53.20	4.0297
53.22	4.0301
53.23	4.0308
53.25	4.0315
53.27	4.0322
53.29	4.0329
53.30	4.0336
53.32	4.0342
53.33	4.0347
53.34	4.0354
53.37	4.0358
53.38	4.0363
53.40	4.0369
53.42	4.0375
53.43	4.0380
53.45	4.0383
53.47	4.0388
53.49	4.0395
53.50	4.0398
53.52	4.0405
53.53	4.0413
53.55	4.0420
53.57	4.0428
53.58	4.0436
53.60	4.0442
53.62	4.0450
53.63	4.0456
53.65	4.0462
53.67	4.0467
53.68	4.0473
53.70	4.0478
53.72	4.0484
53.73	4.0488
53.75	4.0493
53.77	4.0498
53.79	4.0504
53.80	4.0508
53.82	4.0513
53.84	4.0517
53.85	4.0522
53.87	4.0528
53.88	4.0536
53.90	4.0541
53.92	4.0548
53.93	4.0556
53.95	4.0563
53.97	4.0570
53.98	4.0577
54.00	4.0583
54.01	4.0589
54.03	4.0594
54.05	4.0596
54.07	4.0601
54.09	4.0606
54.10	4.0609
54.12	4.0614
54.13	4.0619
54.15	4.0624
54.17	4.0629
54.18	4.0636
54.20	4.0642
54.21	4.0649
54.23	4.0656
54.25	4.0663
54.27	4.0670
54.28	4.0677
54.30	4.0681
54.32	4.0687
54.33	4.0693
54.35	4.0699
54.37	4.0703
54.38	4.0709
54.40	4.0714
54.42	4.0718
54.43	4.0724
54.45	4.0729
54.47	4.0735
54.48	4.0740
54.50	4.0745
54.52	4.0750
54.53	4.0757
54.55	4.0765
54.56	4.0772
54.58	4.0779
54.60	4.0785
54.62	4.0793
54.63	4.0799
54.65	4.0806
54.67	4.0810
54.69	4.0817
54.70	4.0821
54.72	4.0827
54.73	4.0833
54.75	4.0837
54.77	4.0840
54.79	4.0844
54.80	4.0848
54.82	4.0852
54.84	4.0858
54.85	4.0864
54.87	4.0870
54.88	4.0878
54.90	4.0887
54.92	4.0896
54.93	4.0900
54.95	4.0907
54.96	4.0912
54.98	4.0916
55.00	4.0919
55.01	4.0923
55.03	4.0928
55.05	4.0932
55.07	4.0937
55.08	4.0943
55.10	4.0948
55.12	4.0953
55.13	4.0958
55.15	4.0963
55.16	4.0966
55.18	4.0971
55.20	4.0977
55.21	4.0984
55.23	4.0991
55.25	4.0996
55.27	4.1001
55.29	4.1010
55.30	4.1017
55.32	4.1024
55.34	4.1030
55.34	4.1037
55.37	4.1044
55.38	4.1050
55.40	4.1055
55.42	4.1061
55.42	4.1068
55.45	4.1074
55.48	4.1077
55.51	4.1082
55.53	4.1088
55.54	4.1092
55.55	4.1097
55.55	4.1105
55.56	4.1112
55.57	4.1118
55.59	4.1123
55.61	4.1129
55.63	4.1134
55.65	4.1137
55.67	4.1144
55.68	4.1150
55.70	4.1156
55.71	4.1161
55.73	4.1164
55.75	4.1166
55.77	4.1169
55.78	4.1174
55.80	4.1177
55.81	4.1183
55.83	4.1188
55.84	4.1191
55.87	4.1197
55.88	4.1204
55.90	4.1210
55.92	4.1217
55.93	4.1226
55.95	4.1234
55.97	4.1242
55.98	4.1247
56.00	4.1251
56.01	4.1258
56.03	4.1262
56.05	4.1267
56.07	4.1270
56.08	4.1276
56.10	4.1280
56.12	4.1286
56.13	4.1289
56.15	4.1294
56.16	4.1300
56.18	4.1307
56.20	4.1310
56.22	4.1317
56.23	4.1324
56.25	4.1332
56.26	4.1337
56.28	4.1343
56.30	4.1350
56.32	4.1355
56.33	4.1359
56.35	4.1365
56.37	4.1371
56.39	4.1377
56.40	4.1383
56.41	4.1389
56.43	4.1395
56.45	4.1398
56.46	4.1403
56.48	4.1408
56.50	4.1413
56.52	4.1419
56.53	4.1423
56.55	4.1428
56.57	4.1435
56.58	4.1442
56.60	4.1450
56.62	4.1456
56.63	4.1462
56.65	4.1468
56.67	4.1473
56.68	4.1480
56.70	4.1486
56.71	4.1492
56.73	4.1499
56.75	4.1503
56.76	4.1507
56.78	4.1515
56.80	4.1519
56.82	4.1524
56.83	4.1528
56.85	4.1534
56.87	4.1537
56.88	4.1540
56.90	4.1546
56.92	4.1554
56.93	4.1561
56.95	4.1568
56.97	4.1575
56.98	4.1583
57.00	4.1589
57.01	4.1596
57.03	4.1601
57.05	4.1607
57.06	4.1612
57.08	4.1620
57.09	4.1625
57.12	4.1632
57.13	4.1637
57.14	4.1643
57.16	4.1648
57.18	4.1655
57.20	4.1659
57.21	4.1665
57.23	4.1671
57.25	4.1677
57.26	4.1685
57.28	4.1692
57.30	4.1700
57.31	4.1704
57.33	4.1711
57.35	4.1716
57.37	4.1722
57.38	4.1727
57.40	4.1732
57.42	4.1737
57.43	4.1744
57.45	4.1748
57.47	4.1753
57.48	4.1757
57.50	4.1762
57.51	4.1766
57.53	4.1771
57.55	4.1776
57.56	4.1783
57.58	4.1791
57.59	4.1799
57.62	4.1809
57.63	4.1816
57.65	4.1820
57.66	4.1825
57.68	4.1831
57.70	4.1836
57.71	4.1843
57.73	4.1849
57.75	4.1854
57.76	4.1859
57.78	4.1864
57.80	4.1870
57.81	4.1874
57.83	4.1879
57.84	4.1883
57.86	4.1889
57.88	4.1894
57.90	4.1901
57.91	4.1908
57.93	4.1915
57.95	4.1924
57.97	4.1931
57.98	4.1939
58.00	4.1943
58.02	4.1948
58.03	4.1955
58.05	4.1960
58.06	4.1965
58.08	4.1972
58.09	4.1978
58.11	4.1984
58.13	4.1990
58.15	4.1997
58.17	4.2002
58.18	4.2007
58.20	4.2009
58.22	4.2013
58.23	4.2017
58.25	4.2022
58.26	4.2030
58.28	4.2037
58.30	4.2041
58.32	4.2048
58.33	4.2052
58.34	4.2059
58.36	4.2063
58.38	4.2067
58.39	4.2072
58.41	4.2075
58.43	4.2077
58.45	4.2083
58.46	4.2088
58.48	4.2092
58.50	4.2095
58.51	4.2100
58.53	4.2106
58.55	4.2110
58.57	4.2115
58.58	4.2122
58.59	4.2129
58.62	4.2135
58.63	4.2142
58.65	4.2147
58.67	4.2151
58.68	4.2156
58.70	4.2161
58.71	4.2166
58.73	4.2172
58.75	4.2176
58.76	4.2181
58.77	4.2189
58.79	4.2193
58.81	4.2198
58.83	4.2201
58.85	4.2205
58.87	4.2209
58.88	4.2214
58.90	4.2220
58.92	4.2225
58.93	4.2233
58.95	4.2239
58.97	4.2247
58.98	4.2252
59.00	4.2258
59.01	4.2263
59.03	4.2273
59.04	4.2278
59.06	4.2284
59.08	4.2292
59.09	4.2298
59.11	4.2302
59.13	4.2306
59.15	4.2310
59.16	4.2316
59.18	4.2319
59.20	4.2325
59.21	4.2330
59.23	4.2337
59.24	4.2343
59.26	4.2351
59.27	4.2356
59.29	4.2363
59.31	4.2372
59.33	4.2379
59.34	4.2386
59.36	4.2394
59.38	4.2398
59.40	4.2406
59.41	4.2413
59.43	4.2418
59.45	4.2422
59.46	4.2428
59.48	4.2433
59.50	4.2439
59.51	4.2445
59.53	4.2449
59.55	4.2454
59.57	4.2462
59.58	4.2469
59.59	4.2480
59.61	4.2489
59.63	4.2497
59.65	4.2505
59.66	4.2514
59.68	4.2518
59.70	4.2524
59.71	4.2529
59.73	4.2534
59.75	4.2538
59.76	4.2543
59.77	4.2548
59.80	4.2555
59.81	4.2561
59.83	4.2568
59.84	4.2573
59.86	4.2578
59.88	4.2582
59.89	4.2588
59.91	4.2592
59.93	4.2599
59.94	4.2605
59.96	4.2613
59.98	4.2620
60.00	4.2626
60.01	4.2633
60.02	4.2636
60.04	4.2639
60.06	4.2644
60.08	4.2650
60.09	4.2654
60.11	4.2660
60.13	4.2664
60.15	4.2671
60.16	4.2676
60.18	4.2679
60.19	4.2684
60.21	4.2688
60.23	4.2692
60.24	4.2697
60.26	4.2703
60.27	4.2709
60.30	4.2716
60.31	4.2723
60.33	4.2730
60.34	4.2737
60.35	4.2742
60.38	4.2748
60.39	4.2753
60.41	4.2758
60.43	4.2764
60.44	4.2769
60.46	4.2774
60.48	4.2778
60.50	4.2784
60.51	4.2787
60.53	4.2792
60.55	4.2798
60.56	4.2803
60.58	4.2806
60.59	4.2812
60.61	4.2818
60.63	4.2825
60.64	4.2833
60.66	4.2840
60.68	4.2845
60.70	4.2852
60.71	4.2859
60.73	4.2865
60.74	4.2871
60.76	4.2875
60.77	4.2878
60.79	4.2883
60.81	4.2888
60.83	4.2890
60.84	4.2894
60.86	4.2899
60.88	4.2906
60.89	4.2914
60.91	4.2919
60.93	4.2924
60.94	4.2931
60.96	4.2939
60.98	4.2947
61.00	4.2955
61.01	4.2964
61.03	4.2970
61.05	4.2977
61.06	4.2985
61.08	4.2991
61.09	4.2997
61.11	4.3002
61.13	4.3006
61.14	4.3010
61.16	4.3015
61.18	4.3020
61.19	4.3025
61.21	4.3030
61.23	4.3033
61.25	4.3039
61.26	4.3046
61.27	4.3053
61.29	4.3060
61.31	4.3069
61.32	4.3075
61.34	4.3083
61.36	4.3089
61.38	4.3095
61.39	4.3103
61.40	4.3109
61.43	4.3111
61.44	4.3117
61.46	4.3123
61.48	4.3129
61.50	4.3132
61.51	4.3138
61.52	4.3142
61.54	4.3149
61.55	4.3156
61.58	4.3160
61.59	4.3165
61.61	4.3173
61.63	4.3180
61.64	4.3189
61.65	4.3198
61.67	4.3202
61.69	4.3209
61.70	4.3216
61.73	4.3222
61.74	4.3227
61.75	4.3233
61.77	4.3238
61.79	4.3243
61.80	4.3248
61.82	4.3253
61.84	4.3259
61.86	4.3264
61.88	4.3270
61.89	4.3276
61.91	4.3281
61.93	4.3287
61.94	4.3295
61.96	4.3303
61.97	4.3308
61.99	4.3316
62.01	4.3325
62.02	4.3330
62.04	4.3338
62.05	4.3343
62.08	4.3348
62.09	4.3355
62.11	4.3360
62.12	4.3365
62.14	4.3371
62.16	4.3374
62.18	4.3380
62.19	4.3387
62.20	4.3392
62.22	4.3395
62.24	4.3399
62.25	4.3405
62.27	4.3411
62.29	4.3416
62.30	4.3424
62.33	4.3430
62.34	4.3436
62.36	4.3442
62.38	4.3447
62.39	4.3451
62.40	4.3457
62.43	4.3462
62.44	4.3467
62.45	4.3473
62.47	4.3479
62.49	4.3484
62.50	4.3489
62.52	4.3493
62.54	4.3499
62.56	4.3502
62.58	4.3506
62.59	4.3513
62.61	4.3518
62.62	4.3525
62.63	4.3532
62.65	4.3541
62.67	4.3548
62.69	4.3554
62.70	4.3561
62.72	4.3566
62.74	4.3572
62.76	4.3579
62.78	4.3585
62.80	4.3590
62.80	4.3596
62.82	4.3601
62.84	4.3606
62.85	4.3612
62.87	4.3618
62.89	4.3623
62.90	4.3628
62.92	4.3634
62.94	4.3641
62.96	4.3649
62.98	4.3655
62.99	4.3662
63.00	4.3669
63.02	4.3674
63.04	4.3681
63.05	4.3688
63.07	4.3693
63.08	4.3699
63.10	4.3706
63.12	4.3710
63.14	4.3714
63.16	4.3721
63.18	4.3726
63.19	4.3733
63.21	4.3736
63.23	4.3741
63.24	4.3747
63.25	4.3753
63.27	4.3758
63.29	4.3767
63.30	4.3775
63.32	4.3785
63.34	4.3792
63.35	4.3799
63.37	4.3806
63.40	4.3812
63.41	4.3817
63.42	4.3823
63.44	4.3828
63.46	4.3834
63.47	4.3839
63.49	4.3845
63.50	4.3850
63.52	4.3856
63.54	4.3862
63.55	4.3867
63.57	4.3873
63.59	4.3876
63.61	4.3881
63.63	4.3887
63.64	4.3894
63.65	4.3899
63.68	4.3904
63.69	4.3910
63.70	4.3917
63.73	4.3925
63.74	4.3929
63.75	4.3933
63.77	4.3938
63.79	4.3944
63.80	4.3948
63.82	4.3953
63.84	4.3958
63.86	4.3963
63.87	4.3969
63.89	4.3975
63.91	4.3981
63.93	4.3986
63.94	4.3994
63.96	4.4002
63.98	4.4011
63.99	4.4018
64.00	4.4024
64.02	4.4031
64.04	4.4036
64.06	4.4042
64.08	4.4049
64.09	4.4054
64.11	4.4057
64.12	4.4062
64.14	4.4067
64.16	4.4069
64.17	4.4075
64.19	4.4080
64.20	4.4085
64.22	4.4089
64.24	4.4094
64.26	4.4099
64.28	4.4106
64.30	4.4112
64.31	4.4116
64.32	4.4122
64.34	4.4129
64.35	4.4134
64.37	4.4141
64.39	4.4147
64.41	4.4152
64.42	4.4159
64.44	4.4165
64.45	4.4170
64.47	4.4175
64.49	4.4178
64.51	4.4181
64.53	4.4187
64.54	4.4193
64.56	4.4198
64.57	4.4203
64.59	4.4207
64.61	4.4214
64.63	4.4222
64.64	4.4229
64.66	4.4235
64.67	4.4242
64.69	4.4249
64.71	4.4254
64.72	4.4262
64.74	4.4269
64.75	4.4275
64.78	4.4281
64.79	4.4287
64.81	4.4294
64.82	4.4300
64.84	4.4306
64.86	4.4312
64.88	4.4318
64.89	4.4323
64.91	4.4327
64.92	4.4336
64.94	4.4342
64.96	4.4347
64.97	4.4356
64.99	4.4363
65.01	4.4371
65.03	4.4378
65.05	4.4386
65.06	4.4394
65.07	4.4399
65.09	4.4406
65.11	4.4413
65.12	4.4417
65.14	4.4423
65.16	4.4427
65.17	4.4433
65.19	4.4437
65.20	4.4442
65.21	4.4449
65.23	4.4454
65.25	4.4460
65.27	4.4467
65.29	4.4477
65.30	4.4484
65.33	4.4492
65.34	4.4499
65.35	4.4505
65.37	4.4512
65.39	4.4517
65.40	4.4523
65.42	4.4530
65.44	4.4536
65.45	4.4541
65.47	4.4544
65.49	4.4549
65.50	4.4554
65.52	4.4560
65.54	4.4566
65.55	4.4570
65.57	4.4576
65.59	4.4583
65.61	4.4591
65.63	4.4599
65.64	4.4609
65.65	4.4617
65.67	4.4628
65.69	4.4636
65.71	4.4641
65.72	4.4650
65.74	4.4656
65.76	4.4662
65.78	4.4669
65.79	4.4674
65.80	4.4679
65.83	4.4687
65.84	4.4693
65.86	4.4697
65.88	4.4704
65.89	4.4708
65.91	4.4711
65.92	4.4718
65.94	4.4726
65.96	4.4732
65.98	4.4740
65.99	4.4748
66.01	4.4752
66.03	4.4758
66.04	4.4765
66.06	4.4773
66.08	4.4779
66.09	4.4786
66.11	4.4792
66.13	4.4798
66.14	4.4806
66.16	4.4813
66.17	4.4819
66.19	4.4825
66.21	4.4830
66.22	4.4836
66.24	4.4842
66.26	4.4848
66.28	4.4855
66.29	4.4864
66.31	4.4871
66.33	4.4878
66.34	4.4887
66.35	4.4892
66.37	4.4898
66.39	4.4905
66.41	4.4911
66.42	4.4916
66.44	4.4919
66.46	4.4923
66.47	4.4929
66.49	4.4933
66.50	4.4938
66.52	4.4944
66.54	4.4948
66.55	4.4953
66.58	4.4957
66.59	4.4963
66.61	4.4969
66.63	4.4976
66.64	4.4981
66.66	4.4985
66.67	4.4993
66.69	4.5000
66.71	4.5007
66.72	4.5014
66.74	4.5020
66.76	4.5025
66.77	4.5031
66.79	4.5037
66.80	4.5040
66.82	4.5045
66.84	4.5050
66.85	4.5055
66.88	4.5060
66.89	4.5066
66.91	4.5071
66.93	4.5078
66.94	4.5085
66.96	4.5092
66.97	4.5099
66.99	4.5107
67.00	4.5114
67.02	4.5121
67.04	4.5131
67.05	4.5136
67.08	4.5143
67.09	4.5147
67.11	4.5153
67.13	4.5158
67.14	4.5162
67.15	4.5169
67.17	4.5173
67.19	4.5180
67.20	4.5186
67.22	4.5190
67.24	4.5196
67.26	4.5201
67.27	4.5207
67.29	4.5215
67.31	4.5220
67.32	4.5228
67.34	4.5236
67.36	4.5244
67.37	4.5250
67.39	4.5256
67.40	4.5262
67.42	4.5266
67.44	4.5273
67.46	4.5276
67.47	4.5282
67.49	4.5289
67.51	4.5294
67.53	4.5298
67.54	4.5303
67.56	4.5307
67.57	4.5312
67.59	4.5318
67.61	4.5324
67.63	4.5333
67.64	4.5338
67.65	4.5346
67.67	4.5354
67.69	4.5362
67.70	4.5369
67.72	4.5376
67.74	4.5383
67.75	4.5388
67.77	4.5392
67.78	4.5398
67.80	4.5402
67.83	4.5410
67.84	4.5415
67.85	4.5421
67.88	4.5426
67.89	4.5431
67.90	4.5436
67.92	4.5442
67.94	4.5450
67.96	4.5458
67.97	4.5464
67.99	4.5473
68.00	4.5481
68.03	4.5488
68.04	4.5496
68.05	4.5501
68.08	4.5509
68.09	4.5517
68.11	4.5523
68.12	4.5529
68.14	4.5535
68.16	4.5538
68.17	4.5543
68.19	4.5549
68.20	4.5554
68.22	4.5559
68.23	4.5564
68.26	4.5570
68.28	4.5577
68.29	4.5584
68.30	4.5590
68.32	4.5597
68.34	4.5605
68.35	4.5612
68.37	4.5620
68.39	4.5627
68.41	4.5635
68.42	4.5642
68.44	4.5645
68.45	4.5650
68.48	4.5653
68.49	4.5660
68.51	4.5664
68.53	4.5671
68.54	4.5671
68.55	4.5676
68.58	4.5682
68.59	4.5688
68.60	4.5696
68.62	4.5704
68.64	4.5712
68.66	4.5720
68.67	4.5727
68.69	4.5734
68.70	4.5740
68.72	4.5747
68.74	4.5755
68.75	4.5761
68.78	4.5767
68.79	4.5772
68.80	4.5775
68.83	4.5780
68.84	4.5785
68.85	4.5790
68.87	4.5794
68.89	4.5799
68.91	4.5804
68.92	4.5812
68.94	4.5817
68.95	4.5823
68.97	4.5831
68.99	4.5838
69.00	4.5845
69.03	4.5853
69.04	4.5860
69.06	4.5867
69.08	4.5874
69.09	4.5880
69.10	4.5887
69.12	4.5892
69.14	4.5897
69.16	4.5902
69.17	4.5907
69.18	4.5910
69.20	4.5916
69.22	4.5921
69.24	4.5927
69.26	4.5935
69.28	4.5942
69.29	4.5951
69.30	4.5961
69.32	4.5968
69.33	4.5977
69.35	4.5984
69.37	4.5991
69.39	4.5994
69.40	4.6001
69.42	4.6006
69.43	4.6012
69.45	4.6018
69.47	4.6025
69.48	4.6031
69.50	4.6037
69.52	4.6043
69.54	4.6047
69.55	4.6054
69.57	4.6062
69.59	4.6070
69.61	4.6079
69.62	4.6088
69.64	4.6094
69.65	4.6104
69.67	4.6112
69.69	4.6118
69.71	4.6125
69.72	4.6132
69.74	4.6136
69.75	4.6143
69.77	4.6148
69.79	4.6152
69.80	4.6159
69.83	4.6164
69.84	4.6170
69.85	4.6177
69.87	4.6181
69.89	4.6186
69.91	4.6189
69.92	4.6194
69.93	4.6203
69.95	4.6211
69.97	4.6220
69.99	4.6226
70.00	4.6236
70.03	4.6243
70.04	4.6247
70.05	4.6253
70.07	4.6258
70.09	4.6265
70.10	4.6272
70.12	4.6276
70.14	4.6282
70.16	4.6287
70.17	4.6291
70.18	4.6297
70.20	4.6303
70.22	4.6307
70.24	4.6314
70.25	4.6321
70.28	4.6329
70.29	4.6338
70.31	4.6347
70.32	4.6355
70.34	4.6362
70.35	4.6369
70.37	4.6375
70.39	4.6383
70.40	4.6390
70.42	4.6395
70.43	4.6401
70.45	4.6408
70.48	4.6418
70.49	4.6420
70.51	4.6426
70.52	4.6434
70.54	4.6442
70.55	4.6449
70.57	4.6455
70.59	4.6461
70.60	4.6468
70.62	4.6476
70.63	4.6481
70.65	4.6489
70.67	4.6495
70.69	4.6503
70.70	4.6511
70.72	4.6520
70.74	4.6526
70.75	4.6532
70.78	4.6535
70.79	4.6542
70.80	4.6546
70.82	4.6551
70.84	4.6556
70.86	4.6560
70.87	4.6566
70.89	4.6573
70.90	4.6581
70.92	4.6588
70.93	4.6595
70.95	4.6604
70.97	4.6611
70.98	4.6618
71.00	4.6626
71.02	4.6630
71.03	4.6637
71.05	4.6643
71.07	4.6647
71.09	4.6651
71.10	4.6656
71.12	4.6664
71.14	4.6666
71.15	4.6672
71.17	4.6677
71.18	4.6683
71.20	4.6689
71.22	4.6694
71.24	4.6699
71.25	4.6706
71.27	4.6714
71.28	4.6721
71.30	4.6729
71.32	4.6735
71.34	4.6741
71.36	4.6746
71.38	4.6752
71.39	4.6757
71.40	4.6764
71.42	4.6771
71.44	4.6775
71.45	4.6780
71.47	4.6783
71.48	4.6790
71.50	4.6795
71.52	4.6801
71.54	4.6806
71.55	4.6811
71.57	4.6818
71.59	4.6823
71.60	4.6831
71.62	4.6837
71.64	4.6845
71.65	4.6851
71.67	4.6860
71.69	4.6867
71.70	4.6874
71.72	4.6881
71.74	4.6887
71.75	4.6893
71.77	4.6898
71.79	4.6902
71.80	4.6907
71.82	4.6913
71.84	4.6919
71.85	4.6923
71.87	4.6928
71.89	4.6933
71.90	4.6939
71.92	4.6947
71.93	4.6954
71.94	4.6962
71.96	4.6971
71.98	4.6978
72.00	4.6983
72.01	4.6990
72.03	4.6998
72.05	4.7005
72.07	4.7011
72.08	4.7017
72.10	4.7023
72.12	4.7030
72.13	4.7033
72.14	4.7039
72.17	4.7045
72.18	4.7051
72.20	4.7055
72.22	4.7062
72.24	4.7067
72.25	4.7073
72.26	4.7083
72.28	4.7089
72.30	4.7096
72.32	4.7103
72.34	4.7109
72.35	4.7116
72.37	4.7123
72.39	4.7128
72.41	4.7134
72.42	4.7141
72.44	4.7146
72.45	4.7152
72.47	4.7156
72.49	4.7162
72.50	4.7168
72.52	4.7172
72.54	4.7177
72.55	4.7181
72.57	4.7189
72.58	4.7197
72.60	4.7204
72.62	4.7213
72.63	4.7219
72.65	4.7226
72.67	4.7233
72.69	4.7239
72.70	4.7246
72.72	4.7254
72.74	4.7259
72.75	4.7265
72.78	4.7270
72.79	4.7276
72.80	4.7282
72.82	4.7289
72.84	4.7294
72.85	4.7302
72.87	4.7308
72.89	4.7312
72.90	4.7321
72.92	4.7329
72.94	4.7334
72.95	4.7341
72.98	4.7347
72.99	4.7352
73.01	4.7359
73.03	4.7368
73.04	4.7375
73.05	4.7383
73.07	4.7389
73.09	4.7395
73.10	4.7400
73.12	4.7404
73.14	4.7409
73.15	4.7414
73.17	4.7421
73.19	4.7424
73.20	4.7431
73.22	4.7439
73.24	4.7446
73.25	4.7453
73.27	4.7459
73.29	4.7468
73.30	4.7475
73.33	4.7483
73.34	4.7489
73.35	4.7495
73.37	4.7500
73.39	4.7505
73.40	4.7510
73.42	4.7517
73.44	4.7522
73.45	4.7530
73.47	4.7534
73.49	4.7541
73.50	4.7548
73.52	4.7552
73.54	4.7556
73.55	4.7564
73.57	4.7571
73.58	4.7579
73.60	4.7586
73.62	4.7592
73.64	4.7600
73.65	4.7604
73.67	4.7610
73.69	4.7618
73.70	4.7625
73.72	4.7633
73.74	4.7641
73.75	4.7646
73.77	4.7653
73.79	4.7657
73.80	4.7664
73.82	4.7670
73.83	4.7676
73.86	4.7681
73.87	4.7687
73.89	4.7694
73.91	4.7702
73.92	4.7709
73.94	4.7718
73.95	4.7726
73.97	4.7730
73.99	4.7739
74.00	4.7745
74.02	4.7751
74.04	4.7760
74.06	4.7765
74.08	4.7772
74.09	4.7780
74.10	4.7786
74.12	4.7793
74.14	4.7800
74.16	4.7806
74.17	4.7812
74.19	4.7819
74.21	4.7827
74.23	4.7834
74.24	4.7844
74.25	4.7852
74.27	4.7860
74.29	4.7868
74.30	4.7877
74.32	4.7883
74.34	4.7891
74.35	4.7897
74.37	4.7904
74.39	4.7910
74.41	4.7918
74.42	4.7923
74.44	4.7928
74.46	4.7932
74.48	4.7938
74.49	4.7943
74.50	4.7948
74.52	4.7955
74.54	4.7963
74.55	4.7971
74.58	4.7980
74.59	4.7989
74.61	4.7996
74.63	4.8004
74.64	4.8012
74.65	4.8018
74.67	4.8024
74.69	4.8031
74.70	4.8036
74.73	4.8041
74.74	4.8046
74.75	4.8052
74.78	4.8059
74.79	4.8064
74.80	4.8069
74.83	4.8074
74.84	4.8080
74.86	4.8087
74.87	4.8094
74.88	4.8103
74.90	4.8113
74.92	4.8121
74.94	4.8129
74.95	4.8139
74.98	4.8147
74.99	4.8153
75.01	4.8161
75.03	4.8168
75.04	4.8173
75.05	4.8181
75.07	4.8188
75.09	4.8193
75.10	4.8198
75.13	4.8204
75.14	4.8208
75.16	4.8214
75.17	4.8218
75.18	4.8224
75.20	4.8231
75.23	4.8239
75.24	4.8247
75.26	4.8253
75.28	4.8261
75.29	4.8267
75.30	4.8274
75.33	4.8279
75.34	4.8285
75.35	4.8291
75.38	4.8299
75.39	4.8305
75.41	4.8310
75.42	4.8315
75.44	4.8322
75.45	4.8329
75.47	4.8333
75.49	4.8340
75.51	4.8347
75.53	4.8353
75.54	4.8361
75.56	4.8370
75.57	4.8377
75.59	4.8384
75.60	4.8392
75.62	4.8398
75.64	4.8405
75.65	4.8411
75.67	4.8419
75.69	4.8425
75.71	4.8433
75.73	4.8439
75.75	4.8446
75.76	4.8451
75.77	4.8457
75.79	4.8461
75.81	4.8470
75.82	4.8474
75.83	4.8479
75.85	4.8484
75.87	4.8492
75.89	4.8503
75.91	4.8511
75.92	4.8519
75.94	4.8526
75.96	4.8534
75.97	4.8538
75.99	4.8548
76.00	4.8556
76.02	4.8563
76.04	4.8570
76.06	4.8578
76.08	4.8581
76.09	4.8588
76.10	4.8592
76.13	4.8597
76.14	4.8603
76.16	4.8609
76.17	4.8615
76.19	4.8623
76.20	4.8632
76.23	4.8639
76.24	4.8647
76.26	4.8656
76.27	4.8663
76.29	4.8671
76.30	4.8677
76.32	4.8685
76.34	4.8692
76.36	4.8697
76.37	4.8702
76.39	4.8708
76.40	4.8714
76.42	4.8719
76.44	4.8726
76.46	4.8731
76.48	4.8737
76.49	4.8742
76.51	4.8749
76.52	4.8757
76.54	4.8766
76.56	4.8775
76.58	4.8783
76.59	4.8792
76.61	4.8799
76.63	4.8805
76.64	4.8813
76.66	4.8821
76.67	4.8828
76.69	4.8835
76.71	4.8842
76.73	4.8849
76.74	4.8858
76.76	4.8864
76.78	4.8870
76.79	4.8876
76.80	4.8883
76.83	4.8888
76.84	4.8896
76.86	4.8905
76.88	4.8912
76.89	4.8922
76.90	4.8931
76.92	4.8937
76.94	4.8942
76.96	4.8950
76.97	4.8956
76.99	4.8962
77.01	4.8969
77.03	4.8975
77.04	4.8981
77.05	4.8989
77.07	4.8995
77.09	4.8999
77.11	4.9006
77.13	4.9013
77.14	4.9019
77.16	4.9022
77.17	4.9031
77.19	4.9038
77.21	4.9047
77.23	4.9054
77.24	4.9064
77.26	4.9069
77.28	4.9075
77.29	4.9084
77.30	4.9090
77.33	4.9095
77.34	4.9102
77.36	4.9109
77.38	4.9114
77.39	4.9118
77.41	4.9125
77.42	4.9132
77.44	4.9135
77.46	4.9142
77.48	4.9147
77.49	4.9151
77.50	4.9158
77.53	4.9166
77.54	4.9171
77.55	4.9178
77.57	4.9184
77.59	4.9191
77.60	4.9196
77.62	4.9202
77.64	4.9207
77.65	4.9213
77.67	4.9218
77.69	4.9224
77.70	4.9231
77.73	4.9237
77.74	4.9240
77.75	4.9247
77.78	4.9252
77.79	4.9258
77.80	4.9263
77.82	4.9269
77.84	4.9275
77.86	4.9283
77.88	4.9289
77.89	4.9296
77.91	4.9304
77.92	4.9311
77.94	4.9318
77.95	4.9324
77.98	4.9327
77.99	4.9333
78.01	4.9340
78.03	4.9346
78.04	4.9351
78.05	4.9358
78.08	4.9363
78.09	4.9372
78.11	4.9379
78.13	4.9384
78.14	4.9393
78.15	4.9399
78.17	4.9406
78.19	4.9416
78.20	4.9426
78.23	4.9433
78.24	4.9441
78.26	4.9451
78.28	4.9458
78.29	4.9466
78.31	4.9472
78.33	4.9478
78.34	4.9486
78.36	4.9493
78.38	4.9498
78.39	4.9504
78.40	4.9512
78.42	4.9518
78.44	4.9524
78.46	4.9530
78.48	4.9534
78.49	4.9543
78.51	4.9552
78.53	4.9560
78.55	4.9569
78.56	4.9578
78.58	4.9586
78.59	4.9593
78.61	4.9601
78.62	4.9608
78.64	4.9616
78.65	4.9623
78.67	4.9629
78.69	4.9636
78.71	4.9643
78.73	4.9648
78.74	4.9654
78.76	4.9658
78.78	4.9664
78.79	4.9669
78.80	4.9676
78.82	4.9685
78.84	4.9691
78.86	4.9698
78.88	4.9707
78.89	4.9715
78.91	4.9723
78.92	4.9730
78.95	4.9737
78.96	4.9742
78.98	4.9749
78.99	4.9754
79.01	4.9760
79.03	4.9767
79.04	4.9771
79.05	4.9777
79.08	4.9784
79.09	4.9789
79.11	4.9797
79.13	4.9802
79.14	4.9811
79.16	4.9819
79.17	4.9827
79.19	4.9833
79.21	4.9842
79.23	4.9850
79.24	4.9856
79.26	4.9865
79.28	4.9873
79.29	4.9881
79.30	4.9887
79.32	4.9894
79.34	4.9900
79.36	4.9906
79.37	4.9912
79.39	4.9915
79.41	4.9921
79.42	4.9928
79.44	4.9936
79.46	4.9944
79.47	4.9951
79.49	4.9959
79.51	4.9967
79.53	4.9976
79.54	4.9985
79.56	4.9993
79.58	5.0001
79.59	5.0008
79.60	5.0015
79.63	5.0022
79.64	5.0028
79.65	5.0034
79.67	5.0040
79.69	5.0049
79.70	5.0052
79.73	5.0060
79.74	5.0068
79.76	5.0072
79.77	5.0078
79.79	5.0086
79.80	5.0093
79.82	5.0101
79.84	5.0108
79.86	5.0115
79.88	5.0122
79.89	5.0129
79.91	5.0137
79.92	5.0147
79.94	5.0154
79.95	5.0161
79.98	5.0166
80.00	5.0173
80.01	5.0180
80.02	5.0184
80.04	5.0190
80.06	5.0195
80.08	5.0200
80.09	5.0206
80.10	5.0213
80.12	5.0219
80.14	5.0225
80.15	5.0233
80.17	5.0241
80.19	5.0248
80.20	5.0255
80.22	5.0266
80.24	5.0271
80.25	5.0278
80.27	5.0285
80.29	5.0292
80.30	5.0296
80.32	5.0302
80.33	5.0307
80.35	5.0313
80.37	5.0320
80.39	5.0325
80.40	5.0330
80.42	5.0336
80.44	5.0344
80.46	5.0352
80.47	5.0361
80.49	5.0369
80.51	5.0376
80.53	5.0384
80.54	5.0391
80.56	5.0399
80.57	5.0405
80.59	5.0413
80.61	5.0418
80.62	5.0425
80.64	5.0431
80.65	5.0435
80.67	5.0442
80.69	5.0449
80.71	5.0456
80.73	5.0464
80.74	5.0471
80.75	5.0481
80.77	5.0491
80.79	5.0498
80.81	5.0507
80.82	5.0514
80.84	5.0522
80.85	5.0529
80.87	5.0537
80.89	5.0544
80.91	5.0551
80.92	5.0559
80.94	5.0565
80.96	5.0571
80.98	5.0577
80.99	5.0584
81.00	5.0591
81.02	5.0600
81.04	5.0608
81.05	5.0615
81.07	5.0623
81.09	5.0631
81.11	5.0639
81.13	5.0646
81.14	5.0654
81.15	5.0658
81.17	5.0668
81.18	5.0676
81.20	5.0685
81.22	5.0693
81.24	5.0702
81.25	5.0707
81.27	5.0716
81.29	5.0724
81.30	5.0731
81.32	5.0739
81.34	5.0746
81.35	5.0754
81.37	5.0764
81.39	5.0770
81.41	5.0777
81.42	5.0785
81.43	5.0792
81.45	5.0800
81.48	5.0808
81.49	5.0814
81.50	5.0822
81.52	5.0830
81.54	5.0838
81.55	5.0848
81.57	5.0858
81.59	5.0867
81.61	5.0875
81.63	5.0882
81.64	5.0891
81.66	5.0898
81.67	5.0907
81.69	5.0914
81.71	5.0922
81.72	5.0929
81.74	5.0933
81.75	5.0938
81.77	5.0946
81.78	5.0955
81.80	5.0960
81.82	5.0968
81.84	5.0977
81.85	5.0983
81.87	5.0991
81.88	5.0998
81.90	5.1006
81.92	5.1012
81.94	5.1019
81.95	5.1024
81.97	5.1032
81.98	5.1036
82.00	5.1043
82.02	5.1051
82.04	5.1059
82.05	5.1067
82.07	5.1076
82.09	5.1084
82.10	5.1091
82.12	5.1100
82.14	5.1105
82.15	5.1111
82.17	5.1117
82.19	5.1122
82.20	5.1127
82.22	5.1134
82.23	5.1139
82.25	5.1145
82.28	5.1152
82.29	5.1159
82.30	5.1167
82.32	5.1173
82.33	5.1180
82.35	5.1187
82.36	5.1193
82.38	5.1201
82.40	5.1206
82.42	5.1212
82.43	5.1219
82.45	5.1224
82.47	5.1229
82.48	5.1235
82.50	5.1239
82.52	5.1245
82.54	5.1254
82.55	5.1261
82.57	5.1268
82.58	5.1277
82.60	5.1282
82.62	5.1287
82.63	5.1294
82.65	5.1300
82.67	5.1306
82.67	5.1313
82.68	5.1320
82.69	5.1325
82.72	5.1331
82.75	5.1337
82.76	5.1341
82.78	5.1347
82.80	5.1354
82.82	5.1362
82.83	5.1368
82.85	5.1375
82.87	5.1384
82.89	5.1391
82.90	5.1398
82.92	5.1404
82.93	5.1410
82.95	5.1415
82.97	5.1420
82.98	5.1425
83.00	5.1430
83.02	5.1440
83.03	5.1444
83.05	5.1452
83.07	5.1461
83.09	5.1468
83.10	5.1475
83.12	5.1482
83.14	5.1489
83.15	5.1496
83.17	5.1502
83.18	5.1508
83.20	5.1514
83.22	5.1522
83.23	5.1530
83.25	5.1535
83.27	5.1541
83.28	5.1547
83.29	5.1554
83.31	5.1560
83.33	5.1569
83.35	5.1577
83.37	5.1585
83.38	5.1590
83.40	5.1598
83.42	5.1605
83.43	5.1612
83.45	5.1618
83.47	5.1624
83.49	5.1630
83.50	5.1636
83.52	5.1645
83.53	5.1650
83.55	5.1657
83.57	5.1667
83.58	5.1675
83.60	5.1682
83.62	5.1689
83.63	5.1697
83.65	5.1702
83.67	5.1708
83.68	5.1712
83.70	5.1719
83.72	5.1726
83.73	5.1733
83.75	5.1741
83.76	5.1748
83.78	5.1752
83.80	5.1760
83.82	5.1766
83.83	5.1773
83.84	5.1782
83.86	5.1790
83.88	5.1798
83.89	5.1805
83.91	5.1815
83.93	5.1822
83.95	5.1828
83.97	5.1835
83.98	5.1838
84.00	5.1844
84.02	5.1851
84.03	5.1855
84.05	5.1862
84.06	5.1869
84.08	5.1876
84.09	5.1884
84.11	5.1890
84.13	5.1896
84.15	5.1903
84.17	5.1911
84.18	5.1917
84.20	5.1922
84.22	5.1928
84.23	5.1934
84.25	5.1940
84.27	5.1948
84.28	5.1956
84.30	5.1963
84.32	5.1970
84.33	5.1976
84.34	5.1985
84.37	5.1992
84.38	5.2000
84.40	5.2008
84.41	5.2013
84.43	5.2021
84.45	5.2030
84.47	5.2037
84.48	5.2043
84.50	5.2051
84.51	5.2057
84.53	5.2064
84.55	5.2070
84.56	5.2078
84.58	5.2086
84.60	5.2095
84.62	5.2103
84.63	5.2111
84.64	5.2118
84.66	5.2126
84.68	5.2132
84.70	5.2141
84.71	5.2149
84.73	5.2157
84.75	5.2163
84.76	5.2171
84.78	5.2177
84.80	5.2185
84.81	5.2190
84.83	5.2198
84.84	5.2206
84.86	5.2214
84.88	5.2219
84.89	5.2228
84.91	5.2237
84.93	5.2245
84.94	5.2252
84.96	5.2260
84.98	5.2265
85.00	5.2272
85.01	5.2278
85.03	5.2285
85.04	5.2293
85.06	5.2300
85.08	5.2307
85.09	5.2315
85.11	5.2324
85.13	5.2334
85.14	5.2341
85.17	5.2350
85.18	5.2357
85.19	5.2364
85.21	5.2373
85.23	5.2381
85.25	5.2389
85.26	5.2396
85.28	5.2401
85.30	5.2408
85.31	5.2416
85.33	5.2423
85.34	5.2431
85.36	5.2441
85.38	5.2450
85.39	5.2458
85.41	5.2468
85.43	5.2473
85.45	5.2481
85.46	5.2490
85.48	5.2495
85.50	5.2503
85.51	5.2512
85.53	5.2519
85.55	5.2525
85.56	5.2533
85.58	5.2540
85.59	5.2547
85.61	5.2555
85.63	5.2564
85.64	5.2573
85.66	5.2580
85.67	5.2589
85.69	5.2598
85.71	5.2605
85.73	5.2612
85.74	5.2619
85.76	5.2627
85.78	5.2634
85.79	5.2641
85.81	5.2648
85.83	5.2655
85.84	5.2665
85.86	5.2671
85.88	5.2680
85.89	5.2687
85.91	5.2695
85.92	5.2704
85.94	5.2711
85.96	5.2718
85.98	5.2725
85.99	5.2732
86.01	5.2739
86.03	5.2748
86.05	5.2756
86.07	5.2762
86.08	5.2769
86.10	5.2776
86.12	5.2785
86.13	5.2794
86.14	5.2804
86.16	5.2810
86.17	5.2816
86.19	5.2825
86.21	5.2834
86.23	5.2837
86.24	5.2847
86.25	5.2854
86.27	5.2860
86.29	5.2865
86.30	5.2871
86.33	5.2876
86.34	5.2882
86.37	5.2889
86.38	5.2896
86.39	5.2906
86.41	5.2914
86.42	5.2920
86.44	5.2927
86.46	5.2934
86.48	5.2941
86.49	5.2946
86.51	5.2953
86.53	5.2960
86.54	5.2967
86.56	5.2975
86.58	5.2981
86.59	5.2988
86.60	5.2995
86.62	5.2999
86.64	5.3008
86.65	5.3015
86.67	5.3024
86.69	5.3032
86.71	5.3041
86.72	5.3048
86.74	5.3058
86.76	5.3064
86.77	5.3071
86.79	5.3079
86.81	5.3086
86.82	5.3092
86.84	5.3097
86.85	5.3105
86.88	5.3112
86.89	5.3120
86.91	5.3127
86.92	5.3134
86.94	5.3141
86.95	5.3151
86.97	5.3159
86.99	5.3165
87.00	5.3171
87.03	5.3180
87.04	5.3189
87.05	5.3196
87.07	5.3201
87.09	5.3208
87.11	5.3215
87.13	5.3222
87.14	5.3230
87.15	5.3240
87.17	5.3247
87.19	5.3256
87.20	5.3266
87.22	5.3274
87.24	5.3281
87.26	5.3291
87.28	5.3297
87.29	5.3304
87.30	5.3310
87.32	5.3316
87.34	5.3323
87.35	5.3330
87.37	5.3337
87.39	5.3346
87.40	5.3356
87.42	5.3364
87.44	5.3372
87.46	5.3379
87.48	5.3386
87.49	5.3393
87.51	5.3401
87.53	5.3409
87.54	5.3416
87.55	5.3425
87.57	5.3432
87.59	5.3440
87.60	5.3448
87.62	5.3456
87.64	5.3462
87.65	5.3471
87.67	5.3479
87.69	5.3486
87.70	5.3494
87.72	5.3501
87.74	5.3508
87.75	5.3516
87.77	5.3521
87.79	5.3529
87.81	5.3536
87.82	5.3544
87.84	5.3550
87.85	5.3556
87.87	5.3564
87.88	5.3571
87.90	5.3581
87.92	5.3589
87.94	5.3596
87.95	5.3605
87.97	5.3611
87.99	5.3618
88.00	5.3625
88.02	5.3631
88.03	5.3639
88.05	5.3645
88.07	5.3652
88.08	5.3660
88.10	5.3665
88.12	5.3672
88.14	5.3679
88.15	5.3687
88.17	5.3693
88.18	5.3700
88.20	5.3709
88.22	5.3716
88.23	5.3723
88.25	5.3733
88.27	5.3740
88.28	5.3745
88.30	5.3751
88.32	5.3758
88.33	5.3765
88.34	5.3771
88.37	5.3779
88.38	5.3784
88.40	5.3793
88.42	5.3799
88.44	5.3808
88.45	5.3818
88.47	5.3826
88.48	5.3832
88.50	5.3840
88.52	5.3847
88.53	5.3855
88.55	5.3864
88.56	5.3871
88.58	5.3878
88.60	5.3886
88.62	5.3892
88.64	5.3901
88.65	5.3907
88.66	5.3916
88.68	5.3924
88.70	5.3934
88.72	5.3943
88.73	5.3953
88.75	5.3957
88.77	5.3965
88.78	5.3972
88.80	5.3981
88.82	5.3986
88.83	5.3992
88.85	5.3999
88.87	5.4005
88.88	5.4014
88.89	5.4021
88.92	5.4031
88.93	5.4041
88.95	5.4049
88.97	5.4057
88.98	5.4067
89.00	5.4070
89.02	5.4080
89.03	5.4087
89.05	5.4094
89.07	5.4103
89.08	5.4110
89.09	5.4115
89.11	5.4121
89.13	5.4130
89.14	5.4135
89.16	5.4145
89.18	5.4153
89.20	5.4160
89.21	5.4171
89.23	5.4180
89.25	5.4188
89.26	5.4195
89.28	5.4202
89.30	5.4209
89.31	5.4219
89.33	5.4226
89.34	5.4233
89.36	5.4241
89.38	5.4247
89.39	5.4254
89.41	5.4261
89.43	5.4268
89.45	5.4275
89.46	5.4284
89.48	5.4292
89.50	5.4299
89.51	5.4306
89.53	5.4315
89.55	5.4321
89.56	5.4328
89.58	5.4335
89.59	5.4340
89.61	5.4346
89.63	5.4352
89.64	5.4358
89.66	5.4366
89.68	5.4373
89.70	5.4379
89.71	5.4388
89.73	5.4394
89.74	5.4402
89.76	5.4410
89.78	5.4417
89.80	5.4422
89.81	5.4428
89.83	5.4435
89.84	5.4443
89.86	5.4451
89.88	5.4458
89.89	5.4464
89.91	5.4470
89.93	5.4479
89.95	5.4490
89.96	5.4499
89.98	5.4504
89.99	5.4512
90.01	5.4521
90.03	5.4527
90.05	5.4536
90.06	5.4543
90.08	5.4551
90.09	5.4557
90.11	5.4565
90.13	5.4572
90.14	5.4577
90.16	5.4586
90.17	5.4594
90.20	5.4603
90.21	5.4614
90.23	5.4622
90.25	5.4628
90.26	5.4638
90.28	5.4646
90.29	5.4653
90.31	5.4661
90.33	5.4668
90.34	5.4674
90.36	5.4681
90.38	5.4688
90.39	5.4694
90.41	5.4700
90.42	5.4708
90.44	5.4715
90.46	5.4724
90.48	5.4732
90.49	5.4743
90.50	5.4750
90.53	5.4758
90.54	5.4765
90.56	5.4772
90.58	5.4781
90.59	5.4789
90.60	5.4794
90.63	5.4800
90.64	5.4808
90.66	5.4817
90.67	5.4826
90.69	5.4836
90.71	5.4847
90.72	5.4856
90.74	5.4863
90.76	5.4870
90.78	5.4879
90.79	5.4887
90.80	5.4893
90.82	5.4899
90.84	5.4907
90.86	5.4915
90.87	5.4923
90.89	5.4930
90.91	5.4936
90.92	5.4943
90.94	5.4951
90.96	5.4960
90.98	5.4970
91.00	5.4979
91.01	5.4987
91.03	5.4996
91.04	5.5005
91.06	5.5012
91.08	5.5021
91.09	5.5028
91.10	5.5036
91.12	5.5044
91.14	5.5050
91.15	5.5055
91.17	5.5063
91.19	5.5070
91.20	5.5077
91.22	5.5085
91.24	5.5095
91.26	5.5105
91.28	5.5112
91.29	5.5120
91.31	5.5128
91.32	5.5135
91.34	5.5143
91.35	5.5150
91.37	5.5158
91.39	5.5164
91.40	5.5171
91.42	5.5181
91.44	5.5188
91.45	5.5198
91.47	5.5207
91.49	5.5218
91.51	5.5225
91.53	5.5236
91.54	5.5244
91.55	5.5254
91.57	5.5262
91.59	5.5269
91.60	5.5277
91.62	5.5284
91.64	5.5290
91.66	5.5297
91.67	5.5305
91.69	5.5312
91.71	5.5321
91.72	5.5332
91.74	5.5341
91.76	5.5349
91.78	5.5357
91.79	5.5364
91.80	5.5373
91.82	5.5382
91.84	5.5390
91.85	5.5398
91.88	5.5406
91.89	5.5413
91.91	5.5421
91.92	5.5429
91.94	5.5435
91.96	5.5446
91.98	5.5453
91.99	5.5462
92.00	5.5472
92.02	5.5481
92.04	5.5489
92.05	5.5499
92.07	5.5508
92.09	5.5514
92.10	5.5522
92.13	5.5528
92.14	5.5535
92.15	5.5544
92.17	5.5551
92.20	5.5556
92.21	5.5564
92.22	5.5571
92.23	5.5578
92.25	5.5584
92.27	5.5594
92.29	5.5600
92.30	5.5607
92.33	5.5618
92.34	5.5623
92.35	5.5630
92.37	5.5640
92.39	5.5643
92.41	5.5654
92.42	5.5658
92.44	5.5669
92.45	5.5672
92.47	5.5682
92.49	5.5694
92.50	5.5694
92.52	5.5706
92.54	5.5714
92.55	5.5729
92.57	5.5731
92.59	5.5735
92.60	5.5742
92.62	5.5749
92.64	5.5755
92.65	5.5763
92.67	5.5776
92.68	5.5784
92.70	5.5785
92.72	5.5796
92.74	5.5803
92.76	5.5818
92.77	5.5823
92.79	5.5830
92.80	5.5845
92.82	5.5849
92.84	5.5860
92.85	5.5865
92.87	5.5877
92.89	5.5881
92.90	5.5892
92.92	5.5900
92.93	5.5905
92.95	5.5912
92.97	5.5921
92.98	5.5927
93.00	5.5938
93.02	5.5947
93.04	5.5957
93.05	5.5966
93.07	5.5974
93.09	5.5982
93.10	5.5989
93.12	5.5996
93.14	5.6002
93.15	5.6010
93.17	5.6015
93.18	5.6022
93.20	5.6028
93.22	5.6034
93.24	5.6042
93.25	5.6051
93.27	5.6059
93.29	5.6065
93.30	5.6073
93.32	5.6081
93.34	5.6088
93.35	5.6095
93.37	5.6103
93.38	5.6111
93.40	5.6117
93.42	5.6124
93.44	5.6131
93.45	5.6138
93.47	5.6142
93.48	5.6150
93.50	5.6158
93.52	5.6167
93.54	5.6176
93.55	5.6183
93.57	5.6191
93.58	5.6197
93.60	5.6206
93.62	5.6214
93.64	5.6223
93.65	5.6230
93.67	5.6238
93.68	5.6243
93.70	5.6250
93.72	5.6258
93.73	5.6266
93.75	5.6275
93.77	5.6283
93.79	5.6291
93.80	5.6300
93.82	5.6307
93.83	5.6314
93.85	5.6321
93.87	5.6328
93.88	5.6335
93.90	5.6343
93.92	5.6350
93.93	5.6357
93.95	5.6364
93.97	5.6372
93.99	5.6380
94.00	5.6389
94.02	5.6399
94.03	5.6409
94.05	5.6418
94.07	5.6427
94.09	5.6440
94.10	5.6449
94.12	5.6457
94.13	5.6465
94.14	5.6473
94.17	5.6481
94.18	5.6490
94.20	5.6497
94.21	5.6506
94.23	5.6515
94.25	5.6523
94.27	5.6532
94.29	5.6539
94.30	5.6547
94.32	5.6558
94.33	5.6565
94.35	5.6575
94.37	5.6583
94.38	5.6593
94.40	5.6602
94.41	5.6609
94.43	5.6618
94.45	5.6625
94.47	5.6631
94.48	5.6641
94.50	5.6648
94.52	5.6658
94.54	5.6667
94.55	5.6677
94.57	5.6686
94.58	5.6696
94.60	5.6704
94.62	5.6709
94.64	5.6717
94.65	5.6724
94.66	5.6731
94.68	5.6737
94.70	5.6744
94.72	5.6751
94.73	5.6759
94.75	5.6769
94.77	5.6777
94.78	5.6787
94.80	5.6797
94.82	5.6807
94.83	5.6815
94.85	5.6823
94.87	5.6834
94.88	5.6840
94.90	5.6848
94.92	5.6857
94.93	5.6865
94.95	5.6871
94.97	5.6879
94.98	5.6887
95.00	5.6899
95.02	5.6908
95.03	5.6916
95.05	5.6926
95.06	5.6936
95.08	5.6942
95.09	5.6951
95.11	5.6958
95.13	5.6967
95.15	5.6975
95.16	5.6981
95.18	5.6988
95.20	5.6995
95.22	5.7002
95.23	5.7012
95.25	5.7018
95.27	5.7026
95.28	5.7034
95.30	5.7042
95.32	5.7051
95.33	5.7059
95.34	5.7068
95.37	5.7076
95.38	5.7086
95.39	5.7092
95.42	5.7102
95.43	5.7108
95.45	5.7115
95.46	5.7122
95.48	5.7128
95.50	5.7136
95.52	5.7145
95.53	5.7154
95.55	5.7163
95.56	5.7172
95.58	5.7180
95.60	5.7190
95.61	5.7195
95.63	5.7203
95.64	5.7211
95.67	5.7216
95.68	5.7226
95.70	5.7234
95.72	5.7239
95.73	5.7248
95.75	5.7255
95.76	5.7262
95.78	5.7271
95.80	5.7278
95.82	5.7286
95.83	5.7294
95.84	5.7303
95.87	5.7310
95.88	5.7318
95.90	5.7327
95.91	5.7330
95.93	5.7338
95.95	5.7346
95.97	5.7351
95.98	5.7359
96.00	5.7368
96.02	5.7376
96.03	5.7386
96.05	5.7396
96.06	5.7405
96.08	5.7413
96.10	5.7422
96.12	5.7431
96.13	5.7440
96.15	5.7449
96.17	5.7459
96.18	5.7467
96.20	5.7476
96.21	5.7484
96.23	5.7491
96.24	5.7500
96.26	5.7508
96.28	5.7516
96.29	5.7525
96.31	5.7532
96.33	5.7542
96.34	5.7549
96.36	5.7560
96.38	5.7569
96.39	5.7578
96.41	5.7587
96.43	5.7594
96.45	5.7600
96.46	5.7607
96.48	5.7614
96.50	5.7621
96.51	5.7629
96.53	5.7638
96.55	5.7649
96.57	5.7658
96.58	5.7666
96.59	5.7673
96.61	5.7682
96.63	5.7690
96.64	5.7698
96.66	5.7704
96.67	5.7712
96.69	5.7719
96.71	5.7724
96.73	5.7731
96.75	5.7740
96.77	5.7748
96.78	5.7755
96.80	5.7767
96.82	5.7775
96.83	5.7784
96.84	5.7794
96.86	5.7803
96.88	5.7812
96.89	5.7819
96.91	5.7825
96.93	5.7833
96.95	5.7838
96.96	5.7844
96.98	5.7851
97.00	5.7859
97.01	5.7866
97.03	5.7876
97.05	5.7884
97.06	5.7893
97.08	5.7901
97.09	5.7909
97.11	5.7918
97.13	5.7926
97.14	5.7932
97.16	5.7940
97.18	5.7948
97.20	5.7955
97.21	5.7961
97.23	5.7967
97.25	5.7975
97.26	5.7981
97.28	5.7992
97.29	5.8001
97.31	5.8007
97.33	5.8016
97.34	5.8024
97.36	5.8032
97.38	5.8041
97.39	5.8050
97.41	5.8059
97.42	5.8067
97.45	5.8074
97.46	5.8082
97.48	5.8090
97.49	5.8097
97.51	5.8106
97.53	5.8115
97.55	5.8125
97.56	5.8137
97.58	5.8147
97.59	5.8157
97.61	5.8164
97.63	5.8173
97.64	5.8183
97.66	5.8190
97.68	5.8198
97.70	5.8207
97.71	5.8213
97.73	5.8222
97.75	5.8228
97.76	5.8237
97.78	5.8247
97.79	5.8255
97.81	5.8265
97.83	5.8274
97.84	5.8283
97.86	5.8292
97.88	5.8303
97.89	5.8313
97.91	5.8321
97.93	5.8330
97.95	5.8339
97.97	5.8347
97.98	5.8355
98.00	5.8365
98.01	5.8372
98.03	5.8382
98.05	5.8391
98.06	5.8398
98.08	5.8408
98.09	5.8418
98.11	5.8427
98.13	5.8435
98.14	5.8444
98.16	5.8454
98.17	5.8462
98.20	5.8470
98.21	5.8477
98.23	5.8486
98.25	5.8493
98.26	5.8498
98.28	5.8507
98.30	5.8517
98.31	5.8527
98.33	5.8534
98.34	5.8545
98.36	5.8555
98.38	5.8566
98.39	5.8575
98.41	5.8583
98.43	5.8592
98.45	5.8602
98.46	5.8610
98.48	5.8619
98.50	5.8625
98.51	5.8632
98.53	5.8642
98.55	5.8652
98.56	5.8658
98.58	5.8668
98.59	5.8678
98.61	5.8686
98.63	5.8695
98.65	5.8704
98.67	5.8713
98.68	5.8721
98.70	5.8731
98.71	5.8737
98.73	5.8745
98.74	5.8755
98.76	5.8763
98.78	5.8770
98.79	5.8780
98.81	5.8789
98.83	5.8797
98.84	5.8807
98.86	5.8815
98.88	5.8823
98.89	5.8828
98.91	5.8837
98.93	5.8845
98.95	5.8851
98.96	5.8861
98.98	5.8869
98.99	5.8878
99.01	5.8887
99.03	5.8896
99.05	5.8905
99.06	5.8913
99.07	5.8924
99.09	5.8933
99.11	5.8943
99.13	5.8953
99.14	5.8960
99.16	5.8970
99.18	5.8978
99.19	5.8985
99.21	5.8992
99.22	5.9001
99.24	5.9006
99.26	5.9013
99.28	5.9018
99.30	5.9026
99.31	5.9034
99.33	5.9043
99.34	5.9052
99.35	5.9061
99.38	5.9071
99.39	5.9079
99.40	5.9088
99.42	5.9098
99.45	5.9104
99.46	5.9112
99.48	5.9118
99.49	5.9126
99.51	5.9133
99.53	5.9142
99.55	5.9150
99.56	5.9159
99.58	5.9169
99.59	5.9177
99.61	5.9186
99.63	5.9196
99.64	5.9205
99.66	5.9214
99.68	5.9222
99.70	5.9230
99.71	5.9239
99.73	5.9246
99.74	5.9255
99.76	5.9261
99.78	5.9268
99.79	5.9277
99.81	5.9286
99.83	5.9298
99.84	5.9308
99.86	5.9319
99.88	5.9328
99.89	5.9337
99.91	5.9347
99.92	5.9357
99.94	5.9364
99.96	5.9374
99.98	5.9382
99.99	5.9391
100.00	5.9399
100.02	5.9406
100.05	5.9414
100.06	5.9424
100.08	5.9431
100.09	5.9441
100.11	5.9451
100.13	5.9460
100.14	5.9468
100.16	5.9477
100.18	5.9487
100.19	5.9495
100.21	5.9503
100.23	5.9512
100.24	5.9519
100.26	5.9529
100.28	5.9535
100.30	5.9543
100.31	5.9551
100.33	5.9561
100.35	5.9568
100.36	5.9577
100.38	5.9587
100.40	5.9595
100.41	5.9603
100.43	5.9612
100.44	5.9620
100.46	5.9627
100.48	5.9637
100.50	5.9643
100.51	5.9651
100.53	5.9658
100.54	5.9664
100.56	5.9672
100.58	5.9682
100.59	5.9691
100.61	5.9701
100.63	5.9710
100.64	5.9719
100.66	5.9729
100.68	5.9739
100.70	5.9746
100.71	5.9754
100.73	5.9763
100.74	5.9770
100.76	5.9776
100.78	5.9784
100.79	5.9792
100.81	5.9800
100.83	5.9810
100.84	5.9819
100.86	5.9830
100.88	5.9839
100.89	5.9847
100.91	5.9856
100.93	5.9866
100.94	5.9873
100.96	5.9881
100.98	5.9888
100.99	5.9896
101.01	5.9906
101.03	5.9915
101.04	5.9921
101.06	5.9932
101.08	5.9941
101.09	5.9949
101.11	5.9959
101.13	5.9968
101.14	5.9978
101.15	5.9987
101.18	5.9996
101.19	6.0004
101.20	6.0012
101.23	6.0021
101.24	6.0028
101.26	6.0038
101.28	6.0047
101.29	6.0052
101.31	6.0060
101.33	6.0071
101.34	6.0080
101.36	6.0088
101.38	6.0098
101.39	6.0109
101.40	6.0118
101.42	6.0124
101.44	6.0133
101.46	6.0143
101.48	6.0153
101.49	6.0159
101.51	6.0168
101.53	6.0176
101.54	6.0183
101.56	6.0192
101.58	6.0200
101.59	6.0208
101.60	6.0218
101.62	6.0226
101.64	6.0235
101.66	6.0243
101.68	6.0253
101.69	6.0261
101.71	6.0269
101.73	6.0277
101.74	6.0286
101.76	6.0294
101.78	6.0301
101.79	6.0306
101.81	6.0316
101.83	6.0325
101.85	6.0333
101.86	6.0344
101.88	6.0353
101.89	6.0363
101.91	6.0372
101.93	6.0380
101.94	6.0388
101.96	6.0397
101.97	6.0406
101.99	6.0415
102.01	6.0423
102.02	6.0433
102.04	6.0439
102.05	6.0448
102.07	6.0456
102.09	6.0465
102.11	6.0474
102.13	6.0481
102.14	6.0487
102.16	6.0496
102.18	6.0503
102.19	6.0513
102.21	6.0522
102.23	6.0532
102.24	6.0540
102.26	6.0549
102.28	6.0557
102.29	6.0564
102.31	6.0572
102.33	6.0583
102.35	6.0591
102.36	6.0600
102.37	6.0610
102.40	6.0620
102.41	6.0630
102.43	6.0638
102.44	6.0647
102.45	6.0656
102.47	6.0664
102.49	6.0672
102.51	6.0683
102.52	6.0692
102.54	6.0700
102.56	6.0709
102.57	6.0718
102.59	6.0726
102.61	6.0735
102.63	6.0746
102.64	6.0752
102.65	6.0760
102.67	6.0768
102.69	6.0776
102.71	6.0786
102.73	6.0791
102.74	6.0799
102.76	6.0807
102.78	6.0817
102.79	6.0825
102.80	6.0836
102.83	6.0844
102.84	6.0853
102.86	6.0862
102.88	6.0873
102.89	6.0884
102.91	6.0895
102.93	6.0904
102.94	6.0911
102.96	6.0922
102.98	6.0931
102.99	6.0938
103.01	6.0948
103.03	6.0955
103.05	6.0960
103.06	6.0970
103.08	6.0979
103.09	6.0988
103.11	6.0999
103.13	6.1009
103.14	6.1017
103.15	6.1026
103.17	6.1035
103.19	6.1045
103.21	6.1053
103.23	6.1061
103.24	6.1067
103.26	6.1075
103.27	6.1082
103.29	6.1089
103.31	6.1095
103.33	6.1105
103.34	6.1112
103.35	6.1120
103.38	6.1131
103.39	6.1141
103.40	6.1150
103.43	6.1157
103.44	6.1165
103.45	6.1174
103.48	6.1183
103.49	6.1192
103.50	6.1200
103.52	6.1208
103.54	6.1216
103.56	6.1224
103.58	6.1230
103.59	6.1237
103.61	6.1244
103.63	6.1254
103.64	6.1262
103.66	6.1271
103.68	6.1280
103.69	6.1287
103.70	6.1297
103.72	6.1306
103.74	6.1315
103.76	6.1326
103.77	6.1334
103.79	6.1340
103.80	6.1349
103.83	6.1358
103.84	6.1367
103.85	6.1377
103.87	6.1386
103.88	6.1396
103.90	6.1405
103.92	6.1416
103.93	6.1425
103.95	6.1434
103.97	6.1439
103.99	6.1448
104.00	6.1457
104.02	6.1468
104.04	6.1474
104.05	6.1485
104.07	6.1493
104.09	6.1504
104.11	6.1513
104.13	6.1521
104.15	6.1532
104.16	6.1541
104.17	6.1551
104.19	6.1559
104.20	6.1567
104.22	6.1573
104.24	6.1582
104.25	6.1592
104.28	6.1598
104.29	6.1605
104.30	6.1613
104.32	6.1620
104.34	6.1630
104.35	6.1640
104.37	6.1648
104.39	6.1656
104.40	6.1666
104.42	6.1675
104.44	6.1680
104.46	6.1689
104.47	6.1696
104.49	6.1707
104.50	6.1717
104.52	6.1724
104.54	6.1732
104.55	6.1740
104.57	6.1749
104.59	6.1759
104.60	6.1768
104.63	6.1776
104.64	6.1785
104.65	6.1793
104.67	6.1802
104.69	6.1814
104.71	6.1824
104.73	6.1831
104.74	6.1842
104.75	6.1850
104.77	6.1856
104.79	6.1865
104.80	6.1873
104.82	6.1881
104.84	6.1888
104.86	6.1898
104.87	6.1907
104.89	6.1918
104.90	6.1927
104.92	6.1935
104.94	6.1944
104.95	6.1951
104.97	6.1960
104.98	6.1968
105.00	6.1977
105.03	6.1986
105.04	6.1996
105.05	6.2005
105.07	6.2013
105.09	6.2022
105.10	6.2031
105.12	6.2041
105.14	6.2050
105.16	6.2059
105.18	6.2068
105.19	6.2077
105.20	6.2088
105.22	6.2096
105.24	6.2105
105.25	6.2114
105.27	6.2122
105.29	6.2131
105.30	6.2140
105.32	6.2149
105.34	6.2158
105.35	6.2167
105.37	6.2175
105.39	6.2185
105.40	6.2196
105.42	6.2206
105.44	6.2214
105.45	6.2224
105.47	6.2235
105.48	6.2244
105.50	6.2251
105.52	6.2257
105.54	6.2267
105.55	6.2275
105.57	6.2284
105.58	6.2293
105.60	6.2303
105.62	6.2313
105.64	6.2323
105.65	6.2333
105.67	6.2343
105.69	6.2352
105.70	6.2363
105.72	6.2369
105.74	6.2378
105.75	6.2388
105.77	6.2396
105.79	6.2403
105.80	6.2412
105.82	6.2420
105.84	6.2427
105.85	6.2439
105.87	6.2446
105.89	6.2458
105.90	6.2467
105.92	6.2476
105.93	6.2483
105.95	6.2492
105.97	6.2500
105.99	6.2508
106.00	6.2518
106.02	6.2524
106.03	6.2533
106.05	6.2539
106.07	6.2547
106.08	6.2558
106.10	6.2569
106.12	6.2577
106.14	6.2587
106.15	6.2597
106.17	6.2605
106.18	6.2615
106.20	6.2624
106.22	6.2631
106.24	6.2639
106.25	6.2646
106.27	6.2652
106.28	6.2659
106.30	6.2668
106.32	6.2674
106.33	6.2685
106.35	6.2695
106.37	6.2706
106.39	6.2717
106.40	6.2727
106.42	6.2737
106.44	6.2745
106.45	6.2753
106.47	6.2761
106.49	6.2771
106.50	6.2776
106.52	6.2785
106.54	6.2795
106.55	6.2804
106.57	6.2811
106.59	6.2820
106.60	6.2831
106.62	6.2840
106.63	6.2852
106.65	6.2862
106.67	6.2871
106.69	6.2880
106.70	6.2890
106.72	6.2901
106.73	6.2910
106.75	6.2921
106.77	6.2928
106.79	6.2938
106.80	6.2949
106.82	6.2960
106.83	6.2970
106.85	6.2980
106.87	6.2988
106.89	6.2999
106.90	6.3012
106.92	6.3020
106.93	6.3029
106.95	6.3039
106.97	6.3048
106.98	6.3058
107.00	6.3068
107.01	6.3077
107.03	6.3086
107.05	6.3096
107.07	6.3103
107.08	6.3113
107.10	6.3123
107.12	6.3133
107.13	6.3144
107.15	6.3156
107.17	6.3165
107.18	6.3175
107.20	6.3184
107.22	6.3193
107.23	6.3202
107.25	6.3212
107.27	6.3220
107.28	6.3227
107.30	6.3234
107.31	6.3240
107.33	6.3249
107.35	6.3257
107.37	6.3265
107.38	6.3274
107.40	6.3284
107.42	6.3292
107.43	6.3300
107.45	6.3308
107.47	6.3315
107.48	6.3322
107.50	6.3331
107.51	6.3340
107.53	6.3346
107.55	6.3353
107.57	6.3359
107.58	6.3366
107.60	6.3374
107.62	6.3382
107.63	6.3390
107.65	6.3399
107.66	6.3408
107.68	6.3415
107.70	6.3423
107.72	6.3431
107.73	6.3441
107.75	6.3448
107.77	6.3455
107.78	6.3461
107.80	6.3468
107.81	6.3473
107.83	6.3480
107.85	6.3490
107.87	6.3500
107.88	6.3510
107.90	6.3518
107.92	6.3528
107.93	6.3534
107.94	6.3543
107.96	6.3551
107.98	6.3561
108.00	6.3571
108.02	6.3578
108.03	6.3588
108.05	6.3596
108.06	6.3604
108.08	6.3611
108.10	6.3621
108.11	6.3630
108.13	6.3643
108.15	6.3651
108.16	6.3660
108.18	6.3670
108.20	6.3680
108.21	6.3688
108.23	6.3698
108.25	6.3706
108.26	6.3714
108.28	6.3722
108.30	6.3729
108.32	6.3735
108.33	6.3744
108.35	6.3753
108.36	6.3762
108.38	6.3773
108.40	6.3782
108.41	6.3792
108.43	6.3802
108.44	6.3812
108.46	6.3821
108.48	6.3828
108.49	6.3840
108.51	6.3849
108.53	6.3858
108.55	6.3867
108.56	6.3875
108.58	6.3884
108.60	6.3892
108.61	6.3902
108.63	6.3913
108.65	6.3923
108.66	6.3931
108.68	6.3940
108.70	6.3950
108.71	6.3958
108.73	6.3968
108.75	6.3979
108.76	6.3988
108.78	6.3998
108.80	6.4007
108.81	6.4017
108.83	6.4028
108.85	6.4039
108.88	6.4049
108.88	6.4059
108.90	6.4071
108.91	6.4080
108.93	6.4091
108.95	6.4100
108.96	6.4109
108.98	6.4119
109.00	6.4127
109.02	6.4136
109.03	6.4145
109.05	6.4152
109.06	6.4161
109.08	6.4171
109.10	6.4180
109.11	6.4193
109.13	6.4205
109.15	6.4212
109.16	6.4222
109.18	6.4230
109.20	6.4241
109.22	6.4251
109.23	6.4260
109.25	6.4269
109.26	6.4278
109.28	6.4287
109.29	6.4295
109.31	6.4303
109.33	6.4311
109.34	6.4322
109.36	6.4332
109.38	6.4340
109.40	6.4351
109.41	6.4361
109.43	6.4371
109.45	6.4378
109.47	6.4386
109.48	6.4394
109.50	6.4403
109.51	6.4414
109.53	6.4424
109.55	6.4433
109.56	6.4444
109.58	6.4453
109.60	6.4463
109.61	6.4472
109.63	6.4480
109.64	6.4491
109.66	6.4500
109.68	6.4510
109.70	6.4520
109.71	6.4530
109.73	6.4538
109.75	6.4547
109.77	6.4556
109.78	6.4564
109.80	6.4569
109.82	6.4577
109.83	6.4589
109.85	6.4595
109.86	6.4605
109.88	6.4615
109.90	6.4626
109.92	6.4637
109.93	6.4646
109.95	6.4655
109.96	6.4666
109.98	6.4676
110.00	6.4682
110.01	6.4692
110.03	6.4702
110.05	6.4710
110.06	6.4719
110.08	6.4727
110.10	6.4738
110.11	6.4748
110.13	6.4757
110.15	6.4767
110.16	6.4776
110.18	6.4784
110.20	6.4795
110.22	6.4806
110.23	6.4817
110.25	6.4826
110.26	6.4834
110.28	6.4844
110.29	6.4851
110.31	6.4859
110.33	6.4869
110.35	6.4880
110.37	6.4890
110.38	6.4902
110.40	6.4913
110.41	6.4922
110.43	6.4933
110.45	6.4942
110.47	6.4950
110.48	6.4960
110.50	6.4969
110.51	6.4977
110.53	6.4986
110.55	6.4996
110.56	6.5004
110.58	6.5012
110.60	6.5020
110.61	6.5032
110.63	6.5041
110.65	6.5050
110.66	6.5058
110.68	6.5067
110.70	6.5072
110.72	6.5082
110.73	6.5091
110.75	6.5099
110.77	6.5107
110.78	6.5116
110.80	6.5123
110.82	6.5131
110.83	6.5140
110.85	6.5150
110.86	6.5160
110.88	6.5171
110.90	6.5179
110.91	6.5188
110.93	6.5198
110.94	6.5206
110.96	6.5216
110.98	6.5224
111.00	6.5233
111.01	6.5244
111.03	6.5251
111.05	6.5260
111.07	6.5271
111.08	6.5280
111.10	6.5288
111.12	6.5298
111.13	6.5307
111.15	6.5318
111.17	6.5328
111.18	6.5340
111.20	6.5349
111.22	6.5357
111.23	6.5369
111.25	6.5378
111.27	6.5388
111.28	6.5396
111.30	6.5406
111.31	6.5414
111.33	6.5424
111.35	6.5432
111.37	6.5443
111.38	6.5453
111.40	6.5465
111.41	6.5476
111.43	6.5484
111.45	6.5495
111.46	6.5506
111.48	6.5517
111.50	6.5527
111.51	6.5538
111.53	6.5547
111.55	6.5557
111.56	6.5565
111.58	6.5572
111.60	6.5580
111.61	6.5590
111.63	6.5601
111.65	6.5611
111.67	6.5622
111.68	6.5633
111.70	6.5644
111.72	6.5652
111.73	6.5663
111.75	6.5672
111.76	6.5680
111.78	6.5689
111.80	6.5693
111.82	6.5702
111.83	6.5711
111.85	6.5717
111.87	6.5728
111.88	6.5739
111.90	6.5747
111.91	6.5757
111.93	6.5765
111.95	6.5775
111.97	6.5785
111.98	6.5793
112.00	6.5800
112.01	6.5809
112.03	6.5818
112.05	6.5825
112.07	6.5833
112.08	6.5840
112.10	6.5849
112.11	6.5859
112.13	6.5871
112.15	6.5880
112.17	6.5892
112.18	6.5904
112.20	6.5913
112.21	6.5924
112.23	6.5933
112.25	6.5944
112.27	6.5952
112.28	6.5962
112.30	6.5973
112.32	6.5982
112.33	6.5993
112.34	6.6003
112.36	6.6013
112.38	6.6025
112.40	6.6035
112.41	6.6045
112.43	6.6056
112.45	6.6064
112.46	6.6076
112.48	6.6084
112.50	6.6093
112.51	6.6105
112.53	6.6115
112.55	6.6124
112.57	6.6135
112.58	6.6145
112.60	6.6154
112.61	6.6167
112.63	6.6176
112.65	6.6185
112.66	6.6196
112.68	6.6208
112.70	6.6217
112.72	6.6226
112.73	6.6237
112.75	6.6245
112.76	6.6255
112.78	6.6266
112.80	6.6277
112.82	6.6285
112.84	6.6294
112.85	6.6304
112.87	6.6315
112.88	6.6327
112.90	6.6338
112.92	6.6350
112.93	6.6362
112.95	6.6370
112.97	6.6380
112.98	6.6390
113.00	6.6399
113.01	6.6411
113.03	6.6418
113.05	6.6425
113.07	6.6434
113.08	6.6442
113.10	6.6453
113.11	6.6463
113.13	6.6473
113.15	6.6481
113.17	6.6491
113.18	6.6501
113.20	6.6509
113.22	6.6518
113.23	6.6526
113.25	6.6536
113.27	6.6545
113.28	6.6552
113.30	6.6559
113.31	6.6566
113.33	6.6575
113.35	6.6585
113.36	6.6596
113.38	6.6608
113.39	6.6617
113.41	6.6627
113.43	6.6636
113.44	6.6644
113.46	6.6653
113.48	6.6660
113.50	6.6666
113.52	6.6674
113.53	6.6682
113.55	6.6690
113.56	6.6699
113.58	6.6709
113.60	6.6719
113.62	6.6730
113.63	6.6743
113.65	6.6752
113.66	6.6763
113.68	6.6774
113.70	6.6784
113.71	6.6794
113.73	6.6803
113.75	6.6810
113.76	6.6820
113.78	6.6829
113.80	6.6835
113.81	6.6844
113.83	6.6852
113.85	6.6861
113.87	6.6871
113.88	6.6883
113.90	6.6893
113.92	6.6904
113.93	6.6914
113.95	6.6923
113.96	6.6937
113.98	6.6947
114.00	6.6956
114.01	6.6965
114.03	6.6974
114.05	6.6984
114.06	6.6993
114.08	6.7003
114.10	6.7013
114.12	6.7023
114.13	6.7036
114.15	6.7047
114.16	6.7058
114.18	6.7066
114.19	6.7077
114.21	6.7088
114.23	6.7097
114.24	6.7107
114.26	6.7115
114.28	6.7122
114.30	6.7130
114.31	6.7139
114.33	6.7147
114.35	6.7156
114.36	6.7166
114.38	6.7177
114.40	6.7187
114.41	6.7198
114.43	6.7207
114.44	6.7218
114.46	6.7230
114.48	6.7239
114.50	6.7250
114.51	6.7259
114.53	6.7268
114.55	6.7276
114.56	6.7286
114.58	6.7295
114.59	6.7305
114.61	6.7314
114.63	6.7325
114.65	6.7337
114.66	6.7345
114.68	6.7355
114.70	6.7364
114.71	6.7377
114.73	6.7384
114.75	6.7395
114.77	6.7404
114.78	6.7411
114.80	6.7418
114.81	6.7427
114.83	6.7436
114.85	6.7447
114.86	6.7458
114.88	6.7468
114.90	6.7478
114.91	6.7489
114.93	6.7499
114.94	6.7509
114.96	6.7516
114.98	6.7525
115.00	6.7532
115.01	6.7541
115.03	6.7548
115.05	6.7556
115.06	6.7567
115.08	6.7576
115.10	6.7587
115.11	6.7597
115.13	6.7607
115.14	6.7619
115.16	6.7630
115.18	6.7641
115.20	6.7649
115.21	6.7658
115.23	6.7670
115.24	6.7682
115.26	6.7692
115.28	6.7702
115.29	6.7710
115.31	6.7721
115.33	6.7731
115.34	6.7742
115.36	6.7753
115.38	6.7764
115.40	6.7775
115.41	6.7785
115.43	6.7795
115.45	6.7806
115.46	6.7816
115.48	6.7826
115.49	6.7836
115.51	6.7845
115.53	6.7856
115.54	6.7867
115.56	6.7878
115.58	6.7887
115.60	6.7897
115.61	6.7908
115.63	6.7918
115.65	6.7929
115.66	6.7941
115.68	6.7951
115.69	6.7962
115.71	6.7974
115.73	6.7983
115.74	6.7992
115.76	6.8000
115.78	6.8009
115.80	6.8017
115.81	6.8025
115.83	6.8035
115.85	6.8046
115.86	6.8057
115.88	6.8067
115.90	6.8078
115.91	6.8090
115.93	6.8100
115.95	6.8112
115.96	6.8122
115.98	6.8132
115.99	6.8142
116.01	6.8153
116.03	6.8162
116.04	6.8170
116.06	6.8181
116.08	6.8191
116.10	6.8201
116.11	6.8211
116.13	6.8221
116.14	6.8232
116.16	6.8243
116.18	6.8253
116.19	6.8261
116.21	6.8272
116.23	6.8281
116.25	6.8290
116.26	6.8300
116.28	6.8310
116.30	6.8322
116.31	6.8332
116.33	6.8340
116.34	6.8349
116.36	6.8360
116.38	6.8371
116.40	6.8384
116.41	6.8393
116.43	6.8403
116.45	6.8413
116.46	6.8421
116.48	6.8430
116.50	6.8441
116.51	6.8451
116.53	6.8459
116.54	6.8468
116.56	6.8478
116.58	6.8486
116.59	6.8497
116.61	6.8508
116.63	6.8519
116.64	6.8529
116.66	6.8538
116.68	6.8547
116.70	6.8557
116.71	6.8566
116.73	6.8576
116.75	6.8585
116.76	6.8596
116.78	6.8604
116.79	6.8613
116.81	6.8623
116.83	6.8632
116.84	6.8642
116.86	6.8652
116.88	6.8664
116.89	6.8675
116.91	6.8686
116.93	6.8697
116.94	6.8709
116.96	6.8721
116.98	6.8729
117.00	6.8738
117.01	6.8748
117.03	6.8756
117.04	6.8767
117.06	6.8777
117.08	6.8785
117.10	6.8795
117.11	6.8806
117.13	6.8814
117.14	6.8824
117.16	6.8835
117.18	6.8845
117.19	6.8856
117.21	6.8867
117.23	6.8877
117.24	6.8886
117.26	6.8896
117.28	6.8904
117.30	6.8913
117.31	6.8923
117.33	6.8933
117.34	6.8942
117.36	6.8953
117.37	6.8963
117.39	6.8974
117.41	6.8984
117.43	6.8993
117.44	6.9003
117.46	6.9015
117.48	6.9024
117.49	6.9035
117.50	6.9047
117.52	6.9059
117.54	6.9069
117.55	6.9080
117.58	6.9090
117.60	6.9101
117.61	6.9111
117.63	6.9121
117.64	6.9130
117.65	6.9142
117.67	6.9150
117.69	6.9160
117.70	6.9170
117.72	6.9180
117.74	6.9191
117.76	6.9201
117.78	6.9211
117.79	6.9220
117.81	6.9229
117.83	6.9241
117.84	6.9252
117.86	6.9264
117.88	6.9276
117.89	6.9287
117.91	6.9297
117.93	6.9305
117.94	6.9317
117.95	6.9323
117.97	6.9334
117.99	6.9345
118.01	6.9354
118.03	6.9363
118.04	6.9374
118.05	6.9383
118.08	6.9392
118.09	6.9402
118.11	6.9414
118.13	6.9424
118.14	6.9435
118.16	6.9443
118.18	6.9452
118.19	6.9463
118.20	6.9471
118.22	6.9480
118.24	6.9488
118.25	6.9498
118.28	6.9507
118.29	6.9518
118.30	6.9526
118.33	6.9536
118.34	6.9544
118.36	6.9555
118.37	6.9563
118.39	6.9573
118.40	6.9583
118.42	6.9593
118.44	6.9601
118.46	6.9611
118.48	6.9620
118.49	6.9629
118.51	6.9638
118.53	6.9648
118.54	6.9658
118.56	6.9670
118.58	6.9680
118.59	6.9691
118.61	6.9704
118.63	6.9714
118.64	6.9725
118.66	6.9734
118.68	6.9743
118.69	6.9753
118.71	6.9764
118.72	6.9772
118.74	6.9782
118.76	6.9790
118.78	6.9799
118.79	6.9810
118.80	6.9820
118.82	6.9830
118.84	6.9841
118.86	6.9853
118.88	6.9864
118.89	6.9876
118.91	6.9888
118.92	6.9899
118.94	6.9907
118.95	6.9918
118.98	6.9928
118.99	6.9939
119.01	6.9947
119.03	6.9956
119.05	6.9967
119.05	6.9977
119.07	6.9987
119.09	6.9997
119.10	7.0010
119.13	7.0019
119.14	7.0032
119.16	7.0044
119.18	7.0054
119.19	7.0063
119.21	7.0072
119.23	7.0082
119.24	7.0093
119.26	7.0102
119.28	7.0113
119.29	7.0121
119.31	7.0132
119.33	7.0145
119.34	7.0157
119.35	7.0166
119.37	7.0176
119.39	7.0189
119.40	7.0199
119.42	7.0212
119.44	7.0222
119.46	7.0234
119.48	7.0245
119.49	7.0256
119.51	7.0266
119.53	7.0277
119.54	7.0287
119.56	7.0298
119.58	7.0309
119.59	7.0319
119.61	7.0329
119.62	7.0339
119.64	7.0351
119.65	7.0362
119.67	7.0370
119.69	7.0383
119.71	7.0390
119.72	7.0400
119.74	7.0411
119.76	7.0421
119.78	7.0430
119.79	7.0439
119.80	7.0449
119.82	7.0461
119.84	7.0474
119.86	7.0486
119.88	7.0496
119.90	7.0507
119.91	7.0518
119.93	7.0527
119.94	7.0539
119.95	7.0549
119.97	7.0558
119.99	7.0569
120.01	7.0577
120.03	7.0588
120.04	7.0598
120.06	7.0609
120.07	7.0621
120.09	7.0633
120.10	7.0642
120.12	7.0654
120.14	7.0666
120.16	7.0678
120.17	7.0690
120.19	7.0700
120.20	7.0710
120.22	7.0720
120.24	7.0730
120.26	7.0741
120.28	7.0749
120.29	7.0760
120.31	7.0772
120.32	7.0784
120.34	7.0796
120.36	7.0807
120.38	7.0819
120.39	7.0827
120.41	7.0836
120.43	7.0846
120.44	7.0857
120.46	7.0867
120.48	7.0876
120.49	7.0887
120.51	7.0898
120.52	7.0907
120.54	7.0916
120.55	7.0929
120.58	7.0940
120.59	7.0952
120.60	7.0963
120.62	7.0971
120.64	7.0983
120.66	7.0993
120.67	7.1003
120.69	7.1014
120.70	7.1023
120.73	7.1032
120.74	7.1041
120.76	7.1051
120.78	7.1059
120.79	7.1068
120.80	7.1079
120.82	7.1092
120.84	7.1106
120.86	7.1115
120.88	7.1128
120.89	7.1140
120.91	7.1150
120.92	7.1161
120.94	7.1171
120.95	7.1180
120.97	7.1192
120.99	7.1201
121.01	7.1210
121.02	7.1222
121.04	7.1232
121.05	7.1243
121.07	7.1256
121.09	7.1265
121.10	7.1277
121.12	7.1289
121.14	7.1298
121.16	7.1307
121.17	7.1320
121.19	7.1332
121.21	7.1342
121.22	7.1351
121.24	7.1361
121.26	7.1370
121.28	7.1380
121.29	7.1391
121.31	7.1402
121.33	7.1414
121.34	7.1428
121.36	7.1440
121.38	7.1452
121.39	7.1462
121.41	7.1474
121.43	7.1486
121.44	7.1496
121.46	7.1505
121.48	7.1515
121.49	7.1525
121.51	7.1535
121.53	7.1546
121.54	7.1557
121.56	7.1567
121.58	7.1578
121.59	7.1589
121.61	7.1599
121.63	7.1607
121.64	7.1617
121.66	7.1629
121.68	7.1640
121.69	7.1649
121.71	7.1660
121.73	7.1669
121.74	7.1676
121.75	7.1685
121.77	7.1694
121.79	7.1706
121.80	7.1717
121.83	7.1730
121.84	7.1743
121.86	7.1754
121.88	7.1765
121.89	7.1778
121.90	7.1787
121.92	7.1797
121.94	7.1808
121.96	7.1820
121.97	7.1831
121.99	7.1842
122.01	7.1853
122.03	7.1864
122.04	7.1874
122.06	7.1887
122.08	7.1897
122.09	7.1910
122.11	7.1920
122.13	7.1930
122.14	7.1944
122.16	7.1955
122.18	7.1965
122.19	7.1972
122.21	7.1986
122.23	7.1997
122.24	7.2008
122.25	7.2018
122.27	7.2027
122.29	7.2037
122.31	7.2050
122.32	7.2062
122.34	7.2071
122.35	7.2081
122.38	7.2093
122.39	7.2105
122.40	7.2116
122.42	7.2126
122.44	7.2135
122.46	7.2144
122.48	7.2153
122.49	7.2164
122.51	7.2171
122.53	7.2183
122.54	7.2194
122.55	7.2205
122.57	7.2218
122.59	7.2227
122.60	7.2236
122.62	7.2246
122.64	7.2256
122.65	7.2264
122.68	7.2275
122.69	7.2284
122.70	7.2294
122.72	7.2303
122.74	7.2311
122.75	7.2320
122.77	7.2329
122.79	7.2339
122.80	7.2348
122.83	7.2358
122.84	7.2369
122.86	7.2376
122.87	7.2388
122.89	7.2400
122.90	7.2410
122.93	7.2422
122.94	7.2431
122.96	7.2438
122.98	7.2450
122.99	7.2460
123.01	7.2468
123.02	7.2480
123.04	7.2491
123.05	7.2501
123.07	7.2511
123.09	7.2523
123.10	7.2532
123.12	7.2543
123.14	7.2553
123.16	7.2564
123.18	7.2573
123.19	7.2585
123.20	7.2595
123.23	7.2601
123.24	7.2611
123.26	7.2616
123.27	7.2623
123.29	7.2632
123.31	7.2638
123.33	7.2648
123.34	7.2655
123.36	7.2663
123.38	7.2672
123.40	7.2679
123.41	7.2688
123.43	7.2696
123.44	7.2704
123.45	7.2711
123.47	7.2719
123.49	7.2726
123.51	7.2736
123.53	7.2747
123.54	7.2756
123.56	7.2768
123.57	7.2782
123.59	7.2793
123.60	7.2804
123.63	7.2815
123.64	7.2828
123.66	7.2839
123.67	7.2850
123.69	7.2861
123.70	7.2874
123.72	7.2887
123.74	7.2899
123.75	7.2912
123.77	7.2924
123.79	7.2938
123.80	7.2948
123.82	7.2961
123.84	7.2974
123.86	7.2988
123.88	7.3000
123.89	7.3013
123.90	7.3024
123.93	7.3038
123.94	7.3051
123.96	7.3060
123.98	7.3072
123.99	7.3085
124.01	7.3095
124.02	7.3108
124.04	7.3120
124.06	7.3133
124.08	7.3148
124.09	7.3160
124.10	7.3171
124.13	7.3185
124.14	7.3195
124.15	7.3208
124.17	7.3221
124.19	7.3231
124.20	7.3242
124.22	7.3255
124.24	7.3264
124.25	7.3275
124.27	7.3285
124.29	7.3297
124.31	7.3310
124.33	7.3323
124.34	7.3334
124.35	7.3347
124.38	7.3358
124.39	7.3369
124.40	7.3380
124.43	7.3393
124.44	7.3405
124.46	7.3416
124.48	7.3426
124.49	7.3435
124.50	7.3446
124.52	7.3459
124.54	7.3472
124.55	7.3481
124.57	7.3495
124.58	7.3506
124.60	7.3519
124.62	7.3531
124.64	7.3541
124.65	7.3553
124.67	7.3565
124.69	7.3573
124.70	7.3583
124.72	7.3595
124.74	7.3605
124.76	7.3617
124.77	7.3629
124.79	7.3640
124.80	7.3652
124.82	7.3665
124.84	7.3677
124.85	7.3687
124.88	7.3699
124.89	7.3710
124.91	7.3720
124.92	7.3734
124.94	7.3744
124.95	7.3755
124.97	7.3767
124.99	7.3777
125.00	7.3790
125.02	7.3803
125.04	7.3815
125.05	7.3826
125.08	7.3838
125.09	7.3851
125.10	7.3863
125.12	7.3873
125.14	7.3884
125.15	7.3895
125.17	7.3905
125.19	7.3915
125.20	7.3927
125.22	7.3936
125.24	7.3948
125.25	7.3959
125.27	7.3970
125.29	7.3980
125.30	7.3993
125.32	7.4004
125.33	7.4017
125.35	7.4030
125.37	7.4039
125.39	7.4049
125.40	7.4061
125.42	7.4071
125.44	7.4081
125.45	7.4090
125.47	7.4099
125.49	7.4110
125.50	7.4122
125.52	7.4135
125.54	7.4145
125.55	7.4157
125.57	7.4169
125.58	7.4182
125.60	7.4195
125.62	7.4206
125.64	7.4217
125.65	7.4228
125.67	7.4239
125.69	7.4249
125.70	7.4260
125.72	7.4270
125.74	7.4282
125.76	7.4294
125.78	7.4308
125.79	7.4321
125.80	7.4334
125.83	7.4346
125.84	7.4359
125.85	7.4372
125.87	7.4384
125.89	7.4397
125.90	7.4406
125.92	7.4419
125.94	7.4429
125.95	7.4441
125.96	7.4454
125.98	7.4463
126.00	7.4475
126.02	7.4486
126.03	7.4497
126.05	7.4509
126.07	7.4520
126.09	7.4531
126.10	7.4542
126.12	7.4553
126.13	7.4564
126.15	7.4576
126.17	7.4587
126.19	7.4597
126.20	7.4608
126.22	7.4618
126.24	7.4630
126.25	7.4641
126.27	7.4651
126.29	7.4662
126.30	7.4673
126.32	7.4684
126.34	7.4695
126.35	7.4707
126.37	7.4717
126.39	7.4727
126.40	7.4740
126.42	7.4750
126.44	7.4759
126.45	7.4769
126.47	7.4780
126.48	7.4789
126.50	7.4800
126.52	7.4812
126.53	7.4824
126.55	7.4834
126.57	7.4846
126.58	7.4856
126.60	7.4868
126.62	7.4878
126.63	7.4888
126.65	7.4898
126.68	7.4908
126.69	7.4917
126.70	7.4929
126.72	7.4939
126.74	7.4951
126.75	7.4964
126.77	7.4975
126.78	7.4984
126.80	7.4996
126.82	7.5005
126.84	7.5017
126.85	7.5030
126.87	7.5041
126.89	7.5051
126.90	7.5064
126.91	7.5074
126.93	7.5083
126.95	7.5096
126.97	7.5107
126.98	7.5118
127.00	7.5132
127.02	7.5147
127.03	7.5157
127.05	7.5169
127.07	7.5181
127.08	7.5192
127.10	7.5205
127.12	7.5218
127.13	7.5230
127.15	7.5239
127.17	7.5252
127.18	7.5262
127.20	7.5277
127.22	7.5289
127.23	7.5302
127.25	7.5314
127.27	7.5326
127.28	7.5336
127.30	7.5347
127.32	7.5357
127.33	7.5370
127.35	7.5381
127.37	7.5393
127.38	7.5403
127.40	7.5413
127.42	7.5423
127.43	7.5432
127.45	7.5441
127.47	7.5454
127.48	7.5468
127.50	7.5480
127.51	7.5491
127.53	7.5504
127.55	7.5516
127.57	7.5529
127.58	7.5541
127.60	7.5552
127.62	7.5564
127.63	7.5574
127.65	7.5585
127.67	7.5594
127.68	7.5605
127.70	7.5618
127.72	7.5628
127.73	7.5639
127.75	7.5652
127.77	7.5662
127.78	7.5675
127.80	7.5687
127.82	7.5698
127.84	7.5708
127.85	7.5718
127.87	7.5729
127.89	7.5741
127.90	7.5753
127.92	7.5765
127.93	7.5775
127.95	7.5786
127.97	7.5799
127.98	7.5809
128.00	7.5819
128.02	7.5831
128.03	7.5841
128.05	7.5854
128.06	7.5864
128.08	7.5875
128.10	7.5885
128.12	7.5895
128.13	7.5906
128.15	7.5917
128.17	7.5927
128.19	7.5938
128.20	7.5949
128.22	7.5962
128.23	7.5973
128.25	7.5985
128.27	7.5997
128.28	7.6007
128.30	7.6019
128.32	7.6029
128.33	7.6039
128.35	7.6049
128.37	7.6059
128.38	7.6069
128.40	7.6081
128.42	7.6092
128.44	7.6103
128.45	7.6114
128.47	7.6125
128.48	7.6137
128.50	7.6149
128.52	7.6160
128.53	7.6173
128.55	7.6186
128.57	7.6198
128.58	7.6208
128.60	7.6220
128.61	7.6233
128.63	7.6242
128.65	7.6253
128.66	7.6264
128.68	7.6274
128.70	7.6287
128.72	7.6300
128.73	7.6312
128.75	7.6325
128.76	7.6335
128.78	7.6347
128.80	7.6360
128.82	7.6372
128.83	7.6385
128.85	7.6396
128.87	7.6408
128.88	7.6419
128.90	7.6432
128.92	7.6443
128.94	7.6454
128.95	7.6467
128.97	7.6480
128.98	7.6491
129.00	7.6504
129.02	7.6518
129.04	7.6529
129.05	7.6541
129.07	7.6553
129.08	7.6566
129.10	7.6578
129.12	7.6591
129.13	7.6600
129.15	7.6610
129.17	7.6621
129.18	7.6632
129.20	7.6645
129.22	7.6657
129.24	7.6671
129.25	7.6682
129.27	7.6694
129.29	7.6704
129.30	7.6717
129.32	7.6728
129.34	7.6740
129.35	7.6748
129.37	7.6759
129.39	7.6771
129.40	7.6783
129.42	7.6793
129.43	7.6804
129.44	7.6818
129.47	7.6830
129.48	7.6843
129.50	7.6853
129.52	7.6864
129.54	7.6874
129.55	7.6887
129.57	7.6896
129.58	7.6907
129.60	7.6918
129.62	7.6928
129.63	7.6939
129.65	7.6949
129.67	7.6961
129.68	7.6972
129.70	7.6985
129.72	7.6998
129.73	7.7009
129.75	7.7021
129.76	7.7033
129.78	7.7045
129.80	7.7056
129.82	7.7066
129.84	7.7077
129.85	7.7087
129.87	7.7097
129.88	7.7109
129.90	7.7120
129.92	7.7131
129.94	7.7142
129.95	7.7156
129.97	7.7168
129.99	7.7181
130.00	7.7192
130.02	7.7204
130.04	7.7216
130.05	7.7227
130.07	7.7240
130.09	7.7251
130.10	7.7264
130.12	7.7274
130.13	7.7286
130.15	7.7296
130.17	7.7307
130.19	7.7321
130.20	7.7334
130.22	7.7346
130.23	7.7359
130.25	7.7372
130.26	7.7384
130.28	7.7395
130.30	7.7407
130.32	7.7419
130.33	7.7428
130.35	7.7439
130.36	7.7451
130.38	7.7463
130.40	7.7475
130.42	7.7486
130.43	7.7501
130.45	7.7512
130.46	7.7525
130.48	7.7538
130.50	7.7551
130.52	7.7563
130.53	7.7574
130.55	7.7587
130.57	7.7597
130.58	7.7610
130.60	7.7621
130.62	7.7631
130.63	7.7641
130.65	7.7653
130.67	7.7665
130.69	7.7678
130.70	7.7690
130.72	7.7703
130.73	7.7715
130.75	7.7729
130.77	7.7741
130.78	7.7752
130.80	7.7765
130.82	7.7779
130.84	7.7790
130.85	7.7804
130.87	7.7816
130.89	7.7827
130.90	7.7839
130.92	7.7851
130.93	7.7864
130.95	7.7876
130.97	7.7888
130.98	7.7901
131.00	7.7915
131.02	7.7927
131.04	7.7939
131.05	7.7953
131.07	7.7963
131.09	7.7976
131.10	7.7989
131.12	7.8001
131.14	7.8013
131.15	7.8026
131.17	7.8040
131.19	7.8053
131.20	7.8067
131.22	7.8078
131.23	7.8091
131.25	7.8104
131.27	7.8116
131.28	7.8128
131.30	7.8138
131.32	7.8152
131.33	7.8164
131.35	7.8173
131.37	7.8186
131.38	7.8197
131.40	7.8212
131.42	7.8224
131.44	7.8236
131.45	7.8248
131.47	7.8263
131.49	7.8275
131.50	7.8288
131.52	7.8301
131.54	7.8312
131.56	7.8324
131.57	7.8338
131.59	7.8349
131.60	7.8360
131.62	7.8371
131.64	7.8384
131.66	7.8399
131.67	7.8412
131.69	7.8424
131.70	7.8438
131.72	7.8451
131.73	7.8462
131.75	7.8477
131.77	7.8490
131.78	7.8500
131.80	7.8510
131.82	7.8521
131.83	7.8533
131.85	7.8545
131.87	7.8555
131.88	7.8566
131.90	7.8579
131.92	7.8590
131.94	7.8601
131.95	7.8617
131.97	7.8629
131.98	7.8642
132.00	7.8653
132.02	7.8665
132.03	7.8680
132.05	7.8693
132.07	7.8704
132.09	7.8717
132.10	7.8728
132.12	7.8741
132.13	7.8755
132.15	7.8767
132.17	7.8778
132.18	7.8792
132.20	7.8806
132.22	7.8818
132.23	7.8831
132.25	7.8843
132.26	7.8854
132.28	7.8865
132.30	7.8877
132.32	7.8889
132.34	7.8900
132.35	7.8912
132.37	7.8923
132.38	7.8935
132.40	7.8947
132.42	7.8959
132.44	7.8973
132.45	7.8986
132.47	7.8998
132.49	7.9010
132.50	7.9022
132.52	7.9034
132.54	7.9047
132.55	7.9059
132.57	7.9070
132.58	7.9081
132.60	7.9092
132.62	7.9104
132.63	7.9119
132.65	7.9133
132.67	7.9145
132.69	7.9157
132.70	7.9170
132.72	7.9183
132.74	7.9194
132.75	7.9206
132.77	7.9218
132.79	7.9230
132.80	7.9242
132.82	7.9252
132.84	7.9265
132.85	7.9277
132.87	7.9289
132.89	7.9301
132.90	7.9316
132.92	7.9328
132.94	7.9344
132.95	7.9356
132.97	7.9368
132.98	7.9379
133.00	7.9391
133.02	7.9403
133.04	7.9415
133.05	7.9428
133.07	7.9438
133.08	7.9448
133.10	7.9459
133.12	7.9470
133.14	7.9483
133.15	7.9496
133.17	7.9508
133.18	7.9522
133.20	7.9534
133.22	7.9546
133.23	7.9559
133.25	7.9572
133.27	7.9583
133.29	7.9593
133.31	7.9606
133.32	7.9617
133.34	7.9629
133.35	7.9642
133.37	7.9656
133.39	7.9668
133.40	7.9680
133.42	7.9693
133.43	7.9707
133.45	7.9721
133.47	7.9734
133.48	7.9747
133.50	7.9759
133.52	7.9770
133.54	7.9782
133.55	7.9794
133.57	7.9803
133.58	7.9816
133.60	7.9827
133.62	7.9838
133.63	7.9851
133.65	7.9864
133.67	7.9875
133.69	7.9887
133.70	7.9900
133.72	7.9913
133.74	7.9924
133.75	7.9935
133.77	7.9947
133.78	7.9959
133.80	7.9971
133.82	7.9982
133.84	7.9992
133.85	8.0005
133.87	8.0017
133.88	8.0031
133.90	8.0043
133.92	8.0054
133.94	8.0068
133.95	8.0080
133.97	8.0092
133.98	8.0104
134.00	8.0118
134.02	8.0128
134.03	8.0141
134.05	8.0153
134.07	8.0167
134.08	8.0178
134.10	8.0192
134.11	8.0203
134.14	8.0217
134.17	8.0232
134.19	8.0242
134.19	8.0254
134.21	8.0268
134.23	8.0281
134.23	8.0294
134.24	8.0306
134.27	8.0318
134.29	8.0331
134.30	8.0340
134.32	8.0351
134.33	8.0364
134.35	8.0377
134.37	8.0391
134.38	8.0404
134.40	8.0417
134.42	8.0429
134.44	8.0439
134.45	8.0450
134.47	8.0464
134.49	8.0476
134.50	8.0488
134.52	8.0500
134.54	8.0515
134.55	8.0525
134.57	8.0537
134.59	8.0552
134.60	8.0565
134.62	8.0579
134.63	8.0590
134.65	8.0601
134.67	8.0615
134.68	8.0625
134.70	8.0638
134.72	8.0650
134.73	8.0662
134.75	8.0674
134.77	8.0687
134.79	8.0699
134.80	8.0710
134.82	8.0723
134.84	8.0735
134.85	8.0748
134.87	8.0762
134.89	8.0773
134.90	8.0786
134.92	8.0797
134.93	8.0811
134.95	8.0823
134.97	8.0837
134.98	8.0850
135.00	8.0860
135.02	8.0871
135.03	8.0883
135.05	8.0896
135.07	8.0908
135.09	8.0921
135.10	8.0934
135.12	8.0946
135.13	8.0962
135.15	8.0975
135.17	8.0985
135.18	8.1000
135.19	8.1013
135.22	8.1026
135.23	8.1038
135.25	8.1050
135.27	8.1062
135.28	8.1074
135.30	8.1086
135.32	8.1099
135.33	8.1113
135.35	8.1126
135.37	8.1139
135.39	8.1155
135.40	8.1169
135.42	8.1181
135.44	8.1194
135.45	8.1208
135.47	8.1220
135.49	8.1235
135.50	8.1248
135.52	8.1262
135.53	8.1276
135.55	8.1288
135.57	8.1301
135.58	8.1313
135.60	8.1327
135.61	8.1340
135.63	8.1353
135.65	8.1366
135.67	8.1380
135.68	8.1394
135.70	8.1407
135.72	8.1422
135.74	8.1434
135.75	8.1447
135.76	8.1460
135.78	8.1473
135.80	8.1485
135.82	8.1499
135.83	8.1512
135.85	8.1525
135.87	8.1538
135.89	8.1550
135.90	8.1563
135.92	8.1575
135.93	8.1587
135.95	8.1599
135.97	8.1612
135.98	8.1624
136.00	8.1636
136.02	8.1651
136.03	8.1664
136.05	8.1674
136.07	8.1687
136.08	8.1700
136.10	8.1712
136.12	8.1728
136.13	8.1741
136.15	8.1755
136.17	8.1766
136.18	8.1778
136.20	8.1792
136.21	8.1805
136.23	8.1815
136.25	8.1828
136.26	8.1840
136.28	8.1853
136.30	8.1866
136.32	8.1881
136.33	8.1896
136.35	8.1907
136.37	8.1921
136.38	8.1934
136.40	8.1949
136.42	8.1960
136.43	8.1973
136.45	8.1986
136.46	8.2001
136.48	8.2015
136.50	8.2029
136.52	8.2042
136.53	8.2053
136.55	8.2067
136.56	8.2081
136.58	8.2095
136.60	8.2109
136.62	8.2125
136.63	8.2139
136.65	8.2151
136.67	8.2165
136.68	8.2178
136.69	8.2191
136.71	8.2205
136.73	8.2217
136.75	8.2228
136.77	8.2241
136.79	8.2256
136.80	8.2268
136.82	8.2284
136.84	8.2297
136.85	8.2311
136.87	8.2325
136.88	8.2338
136.90	8.2352
136.92	8.2365
136.93	8.2377
136.94	8.2389
136.96	8.2399
136.98	8.2412
137.00	8.2425
137.02	8.2438
137.03	8.2450
137.05	8.2465
137.07	8.2479
137.08	8.2494
137.10	8.2506
137.12	8.2519
137.13	8.2533
137.15	8.2545
137.17	8.2559
137.18	8.2572
137.20	8.2584
137.22	8.2596
137.23	8.2607
137.25	8.2622
137.27	8.2634
137.28	8.2649
137.30	8.2662
137.32	8.2676
137.33	8.2689
137.35	8.2701
137.37	8.2715
137.38	8.2728
137.40	8.2743
137.42	8.2756
137.43	8.2769
137.45	8.2781
137.47	8.2795
137.49	8.2809
137.50	8.2821
137.52	8.2835
137.53	8.2850
137.55	8.2864
137.57	8.2877
137.58	8.2891
137.60	8.2904
137.62	8.2919
137.63	8.2933
137.65	8.2946
137.67	8.2959
137.69	8.2971
137.70	8.2984
137.72	8.2996
137.73	8.3012
137.75	8.3023
137.76	8.3036
137.78	8.3053
137.80	8.3065
137.82	8.3081
137.83	8.3095
137.85	8.3108
137.87	8.3121
137.89	8.3135
137.90	8.3148
137.92	8.3161
137.93	8.3172
137.95	8.3187
137.97	8.3199
137.98	8.3212
138.00	8.3227
138.02	8.3242
138.04	8.3256
138.05	8.3271
138.07	8.3285
138.08	8.3298
138.10	8.3311
138.12	8.3326
138.14	8.3339
138.15	8.3351
138.17	8.3364
138.19	8.3377
138.20	8.3391
138.21	8.3405
138.23	8.3416
138.25	8.3431
138.27	8.3443
138.28	8.3456
138.30	8.3471
138.32	8.3485
138.33	8.3500
138.35	8.3513
138.37	8.3526
138.39	8.3542
138.40	8.3552
138.42	8.3566
138.44	8.3579
138.45	8.3591
138.47	8.3604
138.48	8.3617
138.50	8.3630
138.52	8.3643
138.53	8.3656
138.55	8.3670
138.57	8.3684
138.58	8.3698
138.60	8.3713
138.62	8.3726
138.64	8.3739
138.65	8.3752
138.67	8.3765
138.69	8.3779
138.70	8.3789
138.72	8.3802
138.74	8.3816
138.75	8.3828
138.77	8.3843
138.79	8.3857
138.80	8.3871
138.82	8.3885
138.84	8.3898
138.85	8.3913
138.87	8.3926
138.89	8.3940
138.90	8.3955
138.92	8.3969
138.93	8.3983
138.95	8.3995
138.97	8.4010
138.98	8.4025
139.00	8.4037
139.02	8.4051
139.04	8.4064
139.05	8.4078
139.07	8.4091
139.08	8.4105
139.10	8.4119
139.12	8.4132
139.14	8.4147
139.15	8.4159
139.17	8.4172
139.19	8.4186
139.20	8.4199
139.22	8.4212
139.24	8.4226
139.25	8.4242
139.27	8.4255
139.28	8.4270
139.30	8.4285
139.32	8.4299
139.34	8.4314
139.35	8.4328
139.37	8.4343
139.39	8.4358
139.40	8.4371
139.42	8.4385
139.44	8.4399
139.45	8.4414
139.47	8.4428
139.48	8.4443
139.50	8.4461
139.52	8.4474
139.54	8.4490
139.55	8.4504
139.57	8.4519
139.59	8.4533
139.60	8.4547
139.62	8.4562
139.64	8.4575
139.65	8.4590
139.67	8.4603
139.68	8.4616
139.70	8.4631
139.72	8.4644
139.74	8.4659
139.75	8.4675
139.77	8.4690
139.79	8.4703
139.80	8.4720
139.82	8.4734
139.84	8.4748
139.85	8.4764
139.87	8.4778
139.89	8.4791
139.90	8.4806
139.92	8.4820
139.94	8.4833
139.95	8.4847
139.97	8.4863
139.98	8.4878
140.00	8.4894
140.02	8.4907
140.04	8.4922
140.05	8.4937
140.07	8.4950
140.09	8.4964
140.10	8.4977
140.12	8.4992
140.14	8.5006
140.15	8.5020
140.17	8.5033
140.19	8.5047
140.20	8.5060
140.22	8.5076
140.23	8.5089
140.25	8.5102
140.27	8.5117
140.29	8.5130
140.30	8.5145
140.32	8.5160
140.33	8.5174
140.35	8.5187
140.37	8.5201
140.38	8.5212
140.40	8.5226
140.42	8.5239
140.44	8.5249
140.45	8.5262
140.47	8.5274
140.49	8.5286
140.50	8.5297
140.52	8.5308
140.54	8.5318
140.55	8.5331
140.57	8.5341
140.59	8.5352
140.60	8.5361
140.62	8.5373
140.64	8.5383
140.65	8.5395
140.67	8.5408
140.69	8.5417
140.70	8.5430
140.72	8.5443
140.73	8.5456
140.75	8.5470
140.77	8.5487
140.79	8.5502
140.80	8.5516
140.82	8.5530
140.84	8.5543
140.86	8.5558
140.87	8.5573
140.89	8.5588
140.90	8.5601
140.92	8.5618
140.94	8.5632
140.95	8.5647
140.97	8.5664
140.99	8.5679
141.00	8.5696
141.03	8.5713
141.04	8.5728
141.05	8.5743
141.07	8.5760
141.09	8.5773
141.10	8.5791
141.12	8.5806
141.13	8.5823
141.15	8.5838
141.17	8.5856
141.19	8.5872
141.20	8.5890
141.22	8.5908
141.24	8.5923
141.25	8.5939
141.27	8.5957
141.29	8.5972
141.30	8.5986
141.33	8.6003
141.34	8.6018
141.35	8.6034
141.37	8.6050
141.39	8.6064
141.40	8.6081
141.42	8.6100
141.44	8.6116
141.45	8.6134
141.47	8.6151
141.49	8.6167
141.50	8.6183
141.52	8.6200
141.54	8.6216
141.55	8.6232
141.57	8.6248
141.59	8.6263
141.60	8.6279
141.62	8.6295
141.64	8.6310
141.66	8.6327
141.67	8.6346
141.69	8.6362
141.71	8.6381
141.72	8.6400
141.74	8.6416
141.75	8.6433
141.77	8.6451
141.79	8.6466
141.80	8.6483
141.82	8.6499
141.84	8.6514
141.85	8.6530
141.87	8.6545
141.89	8.6561
141.90	8.6576
141.92	8.6596
141.94	8.6613
141.96	8.6629
141.97	8.6646
141.99	8.6662
142.00	8.6679
142.01	8.6697
142.03	8.6712
142.05	8.6725
142.07	8.6743
142.09	8.6759
142.10	8.6775
142.12	8.6790
142.14	8.6809
142.16	8.6826
142.18	8.6843
142.19	8.6861
142.20	8.6881
142.22	8.6899
142.24	8.6915
142.25	8.6931
142.27	8.6948
142.29	8.6964
142.30	8.6980
142.32	8.6998
142.34	8.7014
142.36	8.7031
142.37	8.7048
142.39	8.7063
142.40	8.7082
142.42	8.7100
142.44	8.7119
142.45	8.7136
142.47	8.7155
142.49	8.7173
142.50	8.7191
142.53	8.7208
142.54	8.7224
142.56	8.7243
142.58	8.7260
142.59	8.7276
142.60	8.7293
142.62	8.7310
142.64	8.7327
142.65	8.7344
142.67	8.7363
142.69	8.7381
142.70	8.7401
142.72	8.7418
142.74	8.7436
142.75	8.7453
142.77	8.7470
142.79	8.7489
142.81	8.7505
142.83	8.7523
142.84	8.7541
142.86	8.7559
142.88	8.7577
142.89	8.7595
142.91	8.7614
142.93	8.7633
142.94	8.7650
142.96	8.7667
142.97	8.7686
142.99	8.7705
143.01	8.7723
143.03	8.7743
143.04	8.7760
143.06	8.7776
143.07	8.7793
143.09	8.7810
143.10	8.7828
143.13	8.7847
143.14	8.7866
143.16	8.7886
143.18	8.7906
143.19	8.7925
143.20	8.7945
143.22	8.7963
143.24	8.7980
143.25	8.7998
143.28	8.8016
143.29	8.8036
143.31	8.8052
143.32	8.8072
143.34	8.8090
143.35	8.8110
143.37	8.8130
143.39	8.8150
143.40	8.8171
143.42	8.8190
143.44	8.8209
143.45	8.8231
143.47	8.8251
143.49	8.8269
143.50	8.8290
143.53	8.8309
143.54	8.8325
143.55	8.8345
143.58	8.8364
143.59	8.8383
143.60	8.8399
143.62	8.8421
143.64	8.8440
143.65	8.8461
143.67	8.8481
143.69	8.8499
143.70	8.8517
143.72	8.8535
143.74	8.8555
143.76	8.8574
143.78	8.8593
143.79	8.8611
143.81	8.8631
143.83	8.8651
143.84	8.8671
143.85	8.8689
143.88	8.8711
143.89	8.8729
143.91	8.8751
143.93	8.8772
143.94	8.8791
143.96	8.8810
143.97	8.8830
143.99	8.8849
144.00	8.8869
144.02	8.8888
144.04	8.8908
144.05	8.8929
144.08	8.8948
144.09	8.8969
144.11	8.8990
144.12	8.9010
144.14	8.9031
144.16	8.9052
144.17	8.9073
144.19	8.9092
144.21	8.9110
144.22	8.9132
144.24	8.9151
144.26	8.9169
144.27	8.9189
144.29	8.9207
144.30	8.9227
144.32	8.9248
144.34	8.9267
144.35	8.9287
144.37	8.9306
144.39	8.9327
144.40	8.9347
144.42	8.9366
144.44	8.9386
144.45	8.9405
144.47	8.9424
144.49	8.9443
144.51	8.9462
144.52	8.9482
144.54	8.9502
144.55	8.9524
144.57	8.9544
144.59	8.9563
144.60	8.9580
144.62	8.9599
144.64	8.9617
144.66	8.9636
144.68	8.9654
144.69	8.9672
144.71	8.9693
144.72	8.9714
144.74	8.9734
144.75	8.9751
144.78	8.9770
144.79	8.9791
144.80	8.9809
144.82	8.9828
144.84	8.9849
144.86	8.9868
144.88	8.9884
144.89	8.9904
144.91	8.9924
144.92	8.9943
144.94	8.9962
144.95	8.9983
144.97	9.0003
144.99	9.0023
145.01	9.0040
145.02	9.0059
145.04	9.0079
145.06	9.0098
145.07	9.0117
145.09	9.0135
145.10	9.0154
145.12	9.0173
145.14	9.0193
145.15	9.0212
145.17	9.0231
145.19	9.0250
145.20	9.0270
145.22	9.0291
145.24	9.0310
145.26	9.0329
145.27	9.0348
145.29	9.0367
145.30	9.0385
145.32	9.0405
145.34	9.0423
145.35	9.0443
145.37	9.0461
145.39	9.0478
145.40	9.0496
145.43	9.0514
145.44	9.0532
145.46	9.0549
145.47	9.0567
145.48	9.0585
145.50	9.0602
145.52	9.0617
145.54	9.0635
145.55	9.0652
145.57	9.0669
145.59	9.0687
145.60	9.0705
145.62	9.0721
145.64	9.0736
145.65	9.0752
145.67	9.0769
145.69	9.0786
145.70	9.0802
145.72	9.0817
145.74	9.0833
145.75	9.0850
145.77	9.0864
145.79	9.0880
145.80	9.0897
145.82	9.0910
145.84	9.0925
145.85	9.0939
145.87	9.0954
145.89	9.0968
145.90	9.0983
145.92	9.0995
145.93	9.1009
145.95	9.1025
145.97	9.1037
145.98	9.1053
146.00	9.1067
146.02	9.1080
146.03	9.1092
146.05	9.1106
146.07	9.1118
146.08	9.1131
146.10	9.1145
146.12	9.1156
146.13	9.1169
146.15	9.1181
146.17	9.1195
146.18	9.1211
146.20	9.1224
146.22	9.1237
146.23	9.1249
146.25	9.1263
146.27	9.1276
146.29	9.1287
146.30	9.1299
146.32	9.1309
146.33	9.1321
146.35	9.1331
146.37	9.1343
146.38	9.1354
146.40	9.1367
146.42	9.1379
146.44	9.1389
146.45	9.1401
146.47	9.1410
146.48	9.1422
146.50	9.1431
146.52	9.1443
146.53	9.1454
146.55	9.1465
146.57	9.1477
146.59	9.1489
146.60	9.1499
146.62	9.1509
146.63	9.1519
146.65	9.1531
146.67	9.1541
146.68	9.1551
146.70	9.1561
146.72	9.1570
146.73	9.1579
146.75	9.1588
146.77	9.1598
146.78	9.1608
146.80	9.1618
146.82	9.1627
146.83	9.1636
146.85	9.1644
146.87	9.1652
146.88	9.1658
146.90	9.1666
146.92	9.1672
146.93	9.1680
146.95	9.1687
146.97	9.1695
146.98	9.1704
147.00	9.1713
147.02	9.1723
147.03	9.1731
147.05	9.1741
147.07	9.1748
147.08	9.1756
147.10	9.1765
147.12	9.1771
147.13	9.1776
147.15	9.1784
147.16	9.1791
147.18	9.1801
147.20	9.1810
147.22	9.1817
147.23	9.1827
147.25	9.1834
147.27	9.1842
147.28	9.1849
147.30	9.1859
147.32	9.1866
147.33	9.1873
147.35	9.1881
147.36	9.1888
147.38	9.1895
147.40	9.1904
147.42	9.1912
147.44	9.1920
147.45	9.1928
147.47	9.1934
147.48	9.1942
147.50	9.1949
147.51	9.1955
147.53	9.1962
147.55	9.1969
147.57	9.1978
147.58	9.1984
147.60	9.1992
147.62	9.1998
147.64	9.2003
147.65	9.2011
147.67	9.2017
147.68	9.2025
147.69	9.2031
147.72	9.2038
147.73	9.2045
147.75	9.2052
147.77	9.2057
147.78	9.2064
147.80	9.2073
147.81	9.2079
147.83	9.2087
147.85	9.2093
147.87	9.2101
147.88	9.2108
147.90	9.2114
147.91	9.2118
147.93	9.2125
147.95	9.2132
147.97	9.2138
147.98	9.2147
148.00	9.2155
148.01	9.2161
148.03	9.2168
148.05	9.2175
148.07	9.2183
148.08	9.2191
148.10	9.2199
148.11	9.2207
148.13	9.2216
148.15	9.2223
148.16	9.2229
148.18	9.2238
148.19	9.2247
148.22	9.2255
148.23	9.2265
148.25	9.2273
148.27	9.2281
148.28	9.2290
148.30	9.2298
148.31	9.2305
148.33	9.2313
148.35	9.2320
148.36	9.2328
148.38	9.2336
148.40	9.2345
148.42	9.2356
148.43	9.2366
148.45	9.2378
148.46	9.2387
148.48	9.2397
148.50	9.2409
148.51	9.2420
148.53	9.2429
148.55	9.2440
148.57	9.2448
148.58	9.2458
148.60	9.2468
148.61	9.2479
148.63	9.2489
148.65	9.2500
148.66	9.2511
148.68	9.2522
148.69	9.2533
148.72	9.2542
148.73	9.2552
148.75	9.2565
148.76	9.2573
148.78	9.2586
148.80	9.2597
148.81	9.2609
148.83	9.2621
148.85	9.2634
148.86	9.2646
148.88	9.2659
148.90	9.2671
148.91	9.2683
148.93	9.2696
148.94	9.2706
148.96	9.2720
148.98	9.2734
149.00	9.2748
149.02	9.2760
149.03	9.2775
149.04	9.2788
149.06	9.2801
149.08	9.2814
149.10	9.2828
149.11	9.2842
149.13	9.2856
149.15	9.2872
149.16	9.2885
149.18	9.2898
149.19	9.2913
149.22	9.2929
149.23	9.2945
149.25	9.2961
149.26	9.2977
149.28	9.2995
149.30	9.3011
149.31	9.3028
149.33	9.3044
149.35	9.3061
149.36	9.3074
149.38	9.3091
149.40	9.3108
149.41	9.3124
149.43	9.3144
149.44	9.3159
149.46	9.3177
149.48	9.3195
149.49	9.3214
149.51	9.3229
149.53	9.3248
149.55	9.3265
149.56	9.3281
149.58	9.3298
149.60	9.3316
149.61	9.3334
149.63	9.3355
149.64	9.3375
149.66	9.3392
149.68	9.3407
149.69	9.3426
149.71	9.3446
149.72	9.3463
149.75	9.3481
149.76	9.3499
149.78	9.3519
149.79	9.3539
149.81	9.3559
149.83	9.3580
149.84	9.3600
149.86	9.3619
149.88	9.3640
149.90	9.3661
149.91	9.3683
149.93	9.3704
149.94	9.3723
149.96	9.3744
149.98	9.3766
150.00	9.3784
150.01	9.3806
150.03	9.3827
150.04	9.3850
150.06	9.3873
150.08	9.3895
150.09	9.3916
150.11	9.3938
150.13	9.3961
150.14	9.3982
150.16	9.4005
150.18	9.4027
150.19	9.4047
150.21	9.4072
150.22	9.4096
150.24	9.4119
150.26	9.4144
150.27	9.4169
150.29	9.4193
150.31	9.4215
150.33	9.4242
150.34	9.4265
150.36	9.4287
150.38	9.4312
150.40	9.4336
150.41	9.4361
150.43	9.4388
150.44	9.4412
150.46	9.4437
150.47	9.4464
150.49	9.4487
150.51	9.4513
150.53	9.4539
150.54	9.4566
150.55	9.4592
150.58	9.4616
150.59	9.4640
150.61	9.4665
150.63	9.4690
150.64	9.4715
150.66	9.4743
150.68	9.4769
150.69	9.4794
150.71	9.4822
150.72	9.4847
150.74	9.4872
150.76	9.4898
150.78	9.4922
150.79	9.4947
150.81	9.4974
150.82	9.5000
150.84	9.5026
150.86	9.5053
150.88	9.5080
150.89	9.5105
150.91	9.5131
150.93	9.5157
150.94	9.5183
150.95	9.5210
150.97	9.5233
150.99	9.5259
151.01	9.5286
151.03	9.5313
151.04	9.5339
151.05	9.5365
151.08	9.5393
151.09	9.5420
151.11	9.5448
151.13	9.5476
151.14	9.5501
151.15	9.5529
151.17	9.5556
151.19	9.5583
151.21	9.5610
151.22	9.5638
151.24	9.5666
151.25	9.5695
151.27	9.5723
151.29	9.5748
151.31	9.5776
151.33	9.5801
151.34	9.5829
151.35	9.5856
151.37	9.5881
151.39	9.5907
151.41	9.5933
151.42	9.5958
151.44	9.5986
151.46	9.6012
151.47	9.6039
151.49	9.6068
151.50	9.6095
151.52	9.6121
151.54	9.6147
151.55	9.6172
151.56	9.6199
151.59	9.6226
151.60	9.6252
151.62	9.6279
151.64	9.6305
151.65	9.6333
151.68	9.6359
151.69	9.6383
151.70	9.6410
151.72	9.6436
151.74	9.6461
151.75	9.6487
151.77	9.6513
151.79	9.6538
151.80	9.6563
151.83	9.6589
151.84	9.6614
151.86	9.6639
151.88	9.6665
151.89	9.6690
151.90	9.6716
151.92	9.6741
151.94	9.6766
151.95	9.6792
151.97	9.6817
151.99	9.6840
152.00	9.6866
152.02	9.6892
152.04	9.6919
152.06	9.6943
152.08	9.6968
152.09	9.6992
152.10	9.7017
152.12	9.7042
152.13	9.7066
152.15	9.7091
152.17	9.7115
152.19	9.7138
152.21	9.7161
152.22	9.7186
152.24	9.7210
152.25	9.7234
152.27	9.7261
152.29	9.7286
152.31	9.7310
152.32	9.7336
152.33	9.7360
152.35	9.7385
152.37	9.7408
152.39	9.7433
152.40	9.7457
152.42	9.7480
152.44	9.7505
152.45	9.7531
152.47	9.7555
152.48	9.7581
152.50	9.7605
152.52	9.7630
152.54	9.7653
152.55	9.7678
152.57	9.7703
152.58	9.7727
152.60	9.7751
152.62	9.7774
152.64	9.7797
152.65	9.7821
152.67	9.7845
152.68	9.7871
152.70	9.7896
152.72	9.7920
152.73	9.7944
152.75	9.7969
152.77	9.7992
152.78	9.8015
152.80	9.8038
152.82	9.8062
152.83	9.8086
152.85	9.8108
152.86	9.8131
152.88	9.8153
152.90	9.8176
152.92	9.8199
152.93	9.8220
152.95	9.8241
152.97	9.8262
152.98	9.8284
153.00	9.8305
153.02	9.8328
153.03	9.8349
153.05	9.8372
153.07	9.8394
153.08	9.8418
153.10	9.8439
153.12	9.8462
153.13	9.8485
153.15	9.8506
153.16	9.8530
153.18	9.8549
153.20	9.8570
153.22	9.8589
153.23	9.8611
153.25	9.8632
153.27	9.8654
153.28	9.8676
153.30	9.8698
153.31	9.8721
153.33	9.8744
153.35	9.8765
153.37	9.8786
153.38	9.8807
153.40	9.8830
153.41	9.8851
153.43	9.8872
153.44	9.8893
153.47	9.8916
153.48	9.8938
153.50	9.8960
153.51	9.8983
153.53	9.9004
153.55	9.9026
153.56	9.9048
153.58	9.9068
153.60	9.9089
153.62	9.9111
153.63	9.9132
153.65	9.9154
153.67	9.9176
153.68	9.9199
153.70	9.9222
153.72	9.9244
153.73	9.9266
153.75	9.9287
153.76	9.9309
153.78	9.9329
153.80	9.9348
153.82	9.9370
153.83	9.9391
153.85	9.9412
153.86	9.9432
153.88	9.9454
153.90	9.9475
153.91	9.9496
153.93	9.9517
153.94	9.9539
153.96	9.9561
153.98	9.9583
154.00	9.9604
154.02	9.9624
154.03	9.9647
154.05	9.9669
154.07	9.9692
154.08	9.9712
154.10	9.9734
154.11	9.9758
154.13	9.9779
154.15	9.9802
154.16	9.9823
154.18	9.9844
154.19	9.9867
154.21	9.9889
154.23	9.9911
154.25	9.9934
154.26	9.9955
154.28	9.9979
154.30	10.0003
154.31	10.0025
154.33	10.0048
154.35	10.0073
154.36	10.0094
154.38	10.0116
154.40	10.0139
154.42	10.0160
154.43	10.0180
154.45	10.0201
154.47	10.0225
154.48	10.0247
154.50	10.0271
154.51	10.0293
154.53	10.0316
154.55	10.0340
154.56	10.0362
154.58	10.0383
154.60	10.0407
154.62	10.0429
154.63	10.0452
154.65	10.0475
154.66	10.0497
154.68	10.0521
154.69	10.0545
154.71	10.0568
154.72	10.0591
154.75	10.0610
154.76	10.0633
154.78	10.0655
154.79	10.0677
154.81	10.0700
154.83	10.0724
154.84	10.0751
154.86	10.0774
154.88	10.0799
154.89	10.0822
154.91	10.0847
154.93	10.0873
154.94	10.0899
154.96	10.0924
154.97	10.0949
154.99	10.0975
155.01	10.0999
155.03	10.1025
155.05	10.1052
155.06	10.1077
155.08	10.1104
155.09	10.1130
155.11	10.1157
155.13	10.1183
155.14	10.1209
155.16	10.1235
155.18	10.1262
155.19	10.1287
155.21	10.1312
155.22	10.1338
155.24	10.1363
155.26	10.1389
155.28	10.1417
155.29	10.1445
155.30	10.1471
155.33	10.1499
155.35	10.1526
155.36	10.1553
155.38	10.1580
155.39	10.1607
155.41	10.1632
155.43	10.1659
155.44	10.1686
155.46	10.1714
155.47	10.1743
155.49	10.1771
155.51	10.1800
155.53	10.1829
155.54	10.1857
155.56	10.1885
155.58	10.1915
155.59	10.1944
155.61	10.1973
155.63	10.2002
155.64	10.2030
155.65	10.2057
155.68	10.2086
155.69	10.2117
155.71	10.2145
155.72	10.2175
155.74	10.2204
155.75	10.2232
155.78	10.2261
155.79	10.2291
155.81	10.2321
155.83	10.2351
155.84	10.2382
155.85	10.2410
155.87	10.2443
155.89	10.2474
155.90	10.2502
155.92	10.2533
155.94	10.2565
155.96	10.2594
155.98	10.2625
155.99	10.2656
156.01	10.2690
156.02	10.2721
156.04	10.2752
156.06	10.2783
156.08	10.2816
156.09	10.2848
156.11	10.2880
156.13	10.2912
156.14	10.2944
156.15	10.2976
156.18	10.3008
156.19	10.3040
156.21	10.3072
156.22	10.3104
156.24	10.3136
156.25	10.3170
156.28	10.3204
156.29	10.3237
156.31	10.3271
156.32	10.3306
156.34	10.3340
156.35	10.3372
156.37	10.3406
156.39	10.3438
156.41	10.3471
156.43	10.3506
156.44	10.3542
156.46	10.3577
156.48	10.3613
156.50	10.3649
156.51	10.3686
156.53	10.3722
156.54	10.3757
156.55	10.3792
156.58	10.3829
156.59	10.3864
156.61	10.3899
156.63	10.3940
156.64	10.3977
156.66	10.4011
156.68	10.4047
156.69	10.4085
156.71	10.4122
156.72	10.4160
156.74	10.4198
156.76	10.4236
156.77	10.4274
156.79	10.4312
156.81	10.4349
156.83	10.4385
156.84	10.4424
156.86	10.4461
156.88	10.4500
156.89	10.4537
156.90	10.4575
156.92	10.4614
156.94	10.4653
156.95	10.4691
156.97	10.4729
156.99	10.4769
157.01	10.4805
157.02	10.4845
157.04	10.4885
157.06	10.4922
157.08	10.4960
157.09	10.4999
157.10	10.5038
157.12	10.5075
157.14	10.5116
157.16	10.5156
157.18	10.5196
157.19	10.5237
157.20	10.5276
157.22	10.5317
157.24	10.5357
157.26	10.5396
157.28	10.5434
157.29	10.5476
157.30	10.5518
157.32	10.5558
157.34	10.5603
157.35	10.5646
157.38	10.5688
157.39	10.5728
157.40	10.5770
157.42	10.5814
157.44	10.5857
157.46	10.5899
157.47	10.5942
157.49	10.5986
157.50	10.6029
157.52	10.6073
157.54	10.6117
157.55	10.6162
157.58	10.6205
157.59	10.6247
157.60	10.6291
157.62	10.6334
157.64	10.6378
157.65	10.6420
157.68	10.6463
157.69	10.6508
157.70	10.6553
157.72	10.6598
157.74	10.6643
157.75	10.6687
157.77	10.6731
157.79	10.6775
157.80	10.6818
157.82	10.6863
157.84	10.6907
157.85	10.6951
157.87	10.6995
157.89	10.7040
157.90	10.7085
157.92	10.7131
157.94	10.7178
157.95	10.7222
157.97	10.7268
157.99	10.7316
158.00	10.7362
158.02	10.7407
158.04	10.7453
158.05	10.7499
158.07	10.7545
158.09	10.7593
158.10	10.7641
158.12	10.7687
158.14	10.7736
158.16	10.7782
158.17	10.7832
158.19	10.7879
158.20	10.7926
158.22	10.7976
158.24	10.8024
158.25	10.8072
158.28	10.8123
158.29	10.8173
158.30	10.8222
158.32	10.8274
158.34	10.8323
158.36	10.8371
158.37	10.8423
158.39	10.8473
158.40	10.8522
158.42	10.8573
158.44	10.8625
158.45	10.8676
158.47	10.8725
158.48	10.8777
158.50	10.8827
158.52	10.8879
158.54	10.8931
158.55	10.8980
158.57	10.9032
158.59	10.9085
158.60	10.9136
158.62	10.9189
158.63	10.9240
158.65	10.9292
158.67	10.9344
158.69	10.9396
158.70	10.9447
158.72	10.9500
158.74	10.9553
158.75	10.9606
158.77	10.9659
158.79	10.9711
158.80	10.9762
158.82	10.9817
158.84	10.9869
158.85	10.9923
158.87	10.9976
158.88	11.0029
158.90	11.0086
158.92	11.0140
158.94	11.0195
158.95	11.0250
158.97	11.0308
158.98	11.0364
159.00	11.0419
159.02	11.0475
159.04	11.0531
159.05	11.0587
159.07	11.0644
159.09	11.0700
159.10	11.0757
159.12	11.0813
159.14	11.0873
159.15	11.0928
159.17	11.0985
159.19	11.1044
159.21	11.1101
159.22	11.1159
159.24	11.1216
159.25	11.1274
159.27	11.1333
159.29	11.1393
159.30	11.1451
159.32	11.1510
159.34	11.1570
159.35	11.1630
159.37	11.1689
159.39	11.1747
159.40	11.1809
159.42	11.1868
159.43	11.1927
159.45	11.1987
159.47	11.2045
159.48	11.2105
159.50	11.2165
159.51	11.2226
159.53	11.2287
159.55	11.2350
159.57	11.2410
159.59	11.2473
159.60	11.2536
159.62	11.2598
159.63	11.2661
159.65	11.2723
159.67	11.2783
159.69	11.2845
159.70	11.2908
159.72	11.2970
159.74	11.3033
159.75	11.3097
159.77	11.3159
159.78	11.3222
159.80	11.3281
159.82	11.3344
159.83	11.3409
159.85	11.3472
159.87	11.3535
159.88	11.3600
159.90	11.3664
159.92	11.3730
159.93	11.3796
159.95	11.3860
159.97	11.3926
159.98	11.3992
160.00	11.4060
160.02	11.4125
160.04	11.4191
160.05	11.4258
160.07	11.4325
160.09	11.4391
160.10	11.4457
160.12	11.4524
160.13	11.4591
160.15	11.4659
160.17	11.4727
160.18	11.4795
160.20	11.4861
160.22	11.4930
160.23	11.4998
160.25	11.5065
160.27	11.5133
160.29	11.5200
160.31	11.5269
160.32	11.5337
160.33	11.5406
160.35	11.5476
160.37	11.5547
160.38	11.5616
160.40	11.5685
160.42	11.5756
160.43	11.5825
160.44	11.5894
160.46	11.5963
160.48	11.6031
160.50	11.6099
160.51	11.6167
160.53	11.6236
160.55	11.6306
160.56	11.6376
160.58	11.6445
160.60	11.6517
160.62	11.6586
160.64	11.6655
160.65	11.6724
160.67	11.6794
160.68	11.6862
160.70	11.6931
160.71	11.7003
160.73	11.7072
160.75	11.7143
160.76	11.7217
160.78	11.7287
160.80	11.7358
160.82	11.7432
160.83	11.7502
160.85	11.7572
160.87	11.7644
160.88	11.7713
160.90	11.7787
160.92	11.7860
160.93	11.7932
160.95	11.8006
160.97	11.8081
160.98	11.8153
161.00	11.8227
161.01	11.8301
161.03	11.8373
161.05	11.8449
161.07	11.8521
161.08	11.8591
161.10	11.8665
161.12	11.8737
161.13	11.8811
161.15	11.8888
161.17	11.8962
161.18	11.9035
161.19	11.9111
161.22	11.9185
161.23	11.9257
161.25	11.9330
161.26	11.9404
161.28	11.9476
161.30	11.9547
161.32	11.9615
161.33	11.9686
161.35	11.9756
161.36	11.9825
161.38	11.9894
161.40	11.9962
161.41	12.0031
161.43	12.0101
161.44	12.0172
161.46	12.0242
161.48	12.0312
161.50	12.0384
161.51	12.0456
161.53	12.0527
161.55	12.0600
161.56	12.0671
161.58	12.0744
161.60	12.0818
161.61	12.0891
161.63	12.0963
161.65	12.1036
161.66	12.1108
161.68	12.1180
161.69	12.1253
161.71	12.1328
161.73	12.1401
161.75	12.1476
161.77	12.1551
161.78	12.1624
161.80	12.1696
161.81	12.1772
161.83	12.1844
161.84	12.1916
161.86	12.1988
161.88	12.2059
161.90	12.2132
161.91	12.2205
161.93	12.2276
161.94	12.2350
161.97	12.2422
161.98	12.2497
162.00	12.2569
162.01	12.2642
162.03	12.2714
162.05	12.2788
162.06	12.2860
162.08	12.2932
162.09	12.3005
162.11	12.3075
162.13	12.3148
162.15	12.3220
162.16	12.3291
162.18	12.3363
162.19	12.3436
162.21	12.3506
162.23	12.3577
162.25	12.3647
162.26	12.3719
162.28	12.3788
162.29	12.3858
162.31	12.3929
162.33	12.3998
162.34	12.4067
162.36	12.4136
162.38	12.4206
162.40	12.4273
162.41	12.4340
162.43	12.4410
162.44	12.4477
162.46	12.4544
162.48	12.4610
162.50	12.4677
162.51	12.4745
162.53	12.4811
162.55	12.4876
162.56	12.4944
162.58	12.5009
162.59	12.5075
162.61	12.5142
162.63	12.5206
162.64	12.5273
162.66	12.5339
162.68	12.5401
162.69	12.5468
162.71	12.5533
162.73	12.5599
162.75	12.5664
162.76	12.5730
162.78	12.5795
162.79	12.5859
162.81	12.5922
162.83	12.5987
162.84	12.6051
162.85	12.6116
162.88	12.6179
162.89	12.6242
162.91	12.6307
162.93	12.6370
162.94	12.6435
162.96	12.6500
162.97	12.6561
162.99	12.6625
163.01	12.6689
163.03	12.6751
163.04	12.6814
163.06	12.6877
163.08	12.6938
163.09	12.7001
163.11	12.7063
163.13	12.7126
163.14	12.7187
163.15	12.7249
163.17	12.7311
163.19	12.7372
163.21	12.7433
163.23	12.7494
163.25	12.7555
163.26	12.7616
163.28	12.7677
163.29	12.7736
163.31	12.7799
163.33	12.7858
163.34	12.7918
163.36	12.7979
163.38	12.8039
163.39	12.8099
163.41	12.8157
163.43	12.8217
163.44	12.8277
163.46	12.8337
163.47	12.8396
163.49	12.8454
163.51	12.8513
163.53	12.8572
163.54	12.8631
163.56	12.8688
163.58	12.8745
163.59	12.8801
163.61	12.8857
163.63	12.8906
163.64	12.8952
163.66	12.8998
163.67	12.9036
163.69	12.9074
163.70	12.9108
163.72	12.9139
163.74	12.9171
163.76	12.9202
163.78	12.9234
163.79	12.9265
163.81	12.9296
163.83	12.9330
163.84	12.9365
163.85	12.9400
163.87	12.9440
163.89	12.9483
163.90	12.9528
163.92	12.9572
163.94	12.9619
163.96	12.9669
163.97	12.9718
163.99	12.9770
164.01	12.9825
164.03	12.9878
164.04	12.9932
164.06	12.9987
164.08	13.0041
164.09	13.0098
164.11	13.0154
164.13	13.0212
164.14	13.0271
164.15	13.0328
164.17	13.0387
164.19	13.0445
164.20	13.0504
164.22	13.0562
164.24	13.0621
164.25	13.0680
164.27	13.0737
164.29	13.0795
164.31	13.0851
164.32	13.0908
164.34	13.0965
164.35	13.1024
164.38	13.1079
164.39	13.1134
164.40	13.1189
164.42	13.1242
164.44	13.1295
164.46	13.1350
164.47	13.1402
164.49	13.1455
164.51	13.1508
164.52	13.1558
164.54	13.1612
164.55	13.1664
164.57	13.1715
164.59	13.1766
164.61	13.1816
164.62	13.1866
164.64	13.1917
164.65	13.1967
164.68	13.2016
164.69	13.2066
164.70	13.2115
164.72	13.2164
164.74	13.2214
164.75	13.2262
164.77	13.2311
164.79	13.2361
164.80	13.2409
164.82	13.2458
164.84	13.2505
164.86	13.2554
164.87	13.2598
164.89	13.2646
164.90	13.2696
164.92	13.2745
164.94	13.2795
164.95	13.2843
164.97	13.2893
164.99	13.2941
165.00	13.2988
165.02	13.3037
165.04	13.3084
165.05	13.3131
165.07	13.3177
165.09	13.3223
165.10	13.3269
165.12	13.3315
165.14	13.3360
165.16	13.3405
165.18	13.3451
165.19	13.3494
165.20	13.3538
165.22	13.3581
165.24	13.3624
165.25	13.3667
165.28	13.3711
165.29	13.3753
165.30	13.3794
165.32	13.3835
165.34	13.3878
165.35	13.3920
165.37	13.3961
165.38	13.4001
165.40	13.4041
165.42	13.4080
165.44	13.4119
165.45	13.4159
165.47	13.4196
165.49	13.4233
165.51	13.4271
165.53	13.4309
165.54	13.4349
165.55	13.4386
165.57	13.4425
165.59	13.4462
165.60	13.4499
165.62	13.4534
165.64	13.4571
165.65	13.4606
165.67	13.4640
165.69	13.4677
165.70	13.4709
165.72	13.4744
165.74	13.4779
165.75	13.4812
165.77	13.4847
165.79	13.4879
165.80	13.4914
165.83	13.4947
165.84	13.4979
165.85	13.5011
165.87	13.5044
165.89	13.5074
165.90	13.5106
165.92	13.5137
165.94	13.5168
165.95	13.5198
165.97	13.5229
165.99	13.5259
166.00	13.5288
166.02	13.5318
166.04	13.5348
166.06	13.5376
166.07	13.5402
166.09	13.5430
166.10	13.5455
166.12	13.5481
166.13	13.5508
166.15	13.5534
166.17	13.5560
166.19	13.5585
166.20	13.5609
166.22	13.5631
166.24	13.5655
166.25	13.5677
166.27	13.5698
166.29	13.5721
166.30	13.5740
166.32	13.5759
166.34	13.5778
166.35	13.5797
166.37	13.5813
166.39	13.5829
166.40	13.5843
166.43	13.5855
166.44	13.5867
166.46	13.5874
166.47	13.5882
166.49	13.5887
166.50	13.5893
166.52	13.5899
166.53	13.5907
166.55	13.5915
166.57	13.5921
166.58	13.5931
166.60	13.5939
166.62	13.5949
166.64	13.5960
166.65	13.5974
166.67	13.5988
166.69	13.6004
166.70	13.6020
166.72	13.6037
166.74	13.6056
166.75	13.6076
166.77	13.6095
166.79	13.6115
166.80	13.6135
166.82	13.6157
166.83	13.6178
166.85	13.6200
166.87	13.6221
166.88	13.6241
166.90	13.6262
166.92	13.6285
166.94	13.6308
166.95	13.6328
166.97	13.6350
166.98	13.6371
167.00	13.6392
167.02	13.6409
167.03	13.6429
167.05	13.6447
167.07	13.6464
167.09	13.6481
167.10	13.6495
167.12	13.6509
167.13	13.6523
167.15	13.6535
167.17	13.6546
167.18	13.6556
167.20	13.6565
167.22	13.6573
167.24	13.6582
167.25	13.6586
167.27	13.6594
167.28	13.6600
167.30	13.6604
167.32	13.6605
167.34	13.6607
167.35	13.6609
167.37	13.6609
167.39	13.6609
167.40	13.6604
167.42	13.6599
167.44	13.6593
167.45	13.6587
167.47	13.6580
167.49	13.6573
167.50	13.6562
167.52	13.6555
167.53	13.6542
167.55	13.6531
167.57	13.6519
167.59	13.6505
167.60	13.6489
167.62	13.6472
167.64	13.6455
167.65	13.6433
167.67	13.6413
167.69	13.6391
167.70	13.6369
167.72	13.6344
167.73	13.6318
167.75	13.6293
167.77	13.6266
167.78	13.6238
167.80	13.6207
167.82	13.6176
167.83	13.6143
167.85	13.6109
167.87	13.6073
167.88	13.6035
167.90	13.5997
167.92	13.5957
167.94	13.5915
167.95	13.5873
167.97	13.5827
167.99	13.5783
168.00	13.5734
168.02	13.5685
168.04	13.5636
168.05	13.5583
168.07	13.5530
168.09	13.5476
168.10	13.5419
168.12	13.5358
168.14	13.5297
168.15	13.5234
168.17	13.5169
168.19	13.5104
168.20	13.5034
168.22	13.4966
168.24	13.4895
168.25	13.4822
168.27	13.4749
168.29	13.4673
168.30	13.4594
168.32	13.4516
168.34	13.4436
168.35	13.4354
168.37	13.4270
168.38	13.4183
168.40	13.4094
168.42	13.4003
168.44	13.3912
168.45	13.3818
168.47	13.3723
168.48	13.3627
168.50	13.3528
168.52	13.3428
168.54	13.3327
168.55	13.3223
168.57	13.3119
168.59	13.3012
168.60	13.2901
168.62	13.2791
168.64	13.2679
168.65	13.2564
168.67	13.2448
168.69	13.2331
168.70	13.2211
168.72	13.2092
168.73	13.1969
168.75	13.1845
168.77	13.1718
168.79	13.1590
168.80	13.1460
168.82	13.1327
168.84	13.1195
168.86	13.1056
168.87	13.0918
168.89	13.0780
168.90	13.0637
168.92	13.0494
168.94	13.0352
168.95	13.0205
168.97	13.0057
168.99	12.9908
169.00	12.9756
169.02	12.9602
169.04	12.9446
169.05	12.9288
169.07	12.9130
169.09	12.8970
169.10	12.8805
169.12	12.8641
169.14	12.8475
169.15	12.8306
169.17	12.8135
169.19	12.7963
169.20	12.7788
169.22	12.7612
169.23	12.7435
169.25	12.7256
169.27	12.7075
169.29	12.6893
169.30	12.6709
169.32	12.6522
169.34	12.6336
169.35	12.6147
169.37	12.5957
169.38	12.5764
169.40	12.5570
169.42	12.5375
169.44	12.5179
169.45	12.4981
169.47	12.4783
169.48	12.4580
169.50	12.4378
169.52	12.4174
169.54	12.3971
169.55	12.3762
169.57	12.3556
169.59	12.3351
169.60	12.3143
169.62	12.2932
169.63	12.2719
169.65	12.2507
169.67	12.2294
169.69	12.2081
169.70	12.1866
169.72	12.1651
169.74	12.1434
169.76	12.1217
169.77	12.1002
169.79	12.0786
169.80	12.0566
169.82	12.0348
169.84	12.0129
169.85	11.9910
169.87	11.9690
169.89	11.9471
169.90	11.9249
169.92	11.9031
169.94	11.8811
169.95	11.8589
169.97	11.8371
169.99	11.8151
170.01	11.7934
170.02	11.7716
170.04	11.7498
170.05	11.7279
170.07	11.7063
170.09	11.6845
170.10	11.6629
170.12	11.6415
170.14	11.6201
170.15	11.5987
170.18	11.5776
170.19	11.5565
170.20	11.5356
170.22	11.5147
170.24	11.4941
170.25	11.4736
170.27	11.4531
170.29	11.4328
170.30	11.4125
170.32	11.3924
170.34	11.3724
170.35	11.3529
170.37	11.3334
170.39	11.3137
170.40	11.2944
170.42	11.2754
170.44	11.2566
170.45	11.2380
170.47	11.2195
170.49	11.2011
170.50	11.1829
170.53	11.1650
170.53	11.1471
170.55	11.1299
170.58	11.1126
170.60	11.0957
170.61	11.0789
170.62	11.0622
170.63	11.0458
170.65	11.0297
170.67	11.0138
170.69	10.9982
170.70	10.9827
170.72	10.9676
170.73	10.9527
170.75	10.9381
170.77	10.9237
170.79	10.9097
170.80	10.8957
170.82	10.8817
170.84	10.8683
170.85	10.8552
170.88	10.8420
170.89	10.8294
170.90	10.8169
170.92	10.8047
170.94	10.7928
170.95	10.7811
170.97	10.7697
170.99	10.7586
171.00	10.7477
171.02	10.7368
171.04	10.7262
171.05	10.7158
171.07	10.7056
171.09	10.6956
171.10	10.6859
171.12	10.6764
171.14	10.6671
171.15	10.6579
171.17	10.6492
171.19	10.6405
171.21	10.6320
171.22	10.6238
171.24	10.6157
171.25	10.6079
171.27	10.6004
171.28	10.5928
171.30	10.5856
171.33	10.5784
171.34	10.5716
171.36	10.5651
171.37	10.5584
171.39	10.5521
171.40	10.5459
171.42	10.5397
171.44	10.5337
171.46	10.5279
171.47	10.5223
171.48	10.5169
171.50	10.5117
171.52	10.5064
171.54	10.5013
171.55	10.4966
171.57	10.4918
171.59	10.4872
171.60	10.4829
171.62	10.4787
171.64	10.4745
171.65	10.4706
171.67	10.4668
171.69	10.4629
171.70	10.4592
171.72	10.4554
171.74	10.4518
171.75	10.4485
171.77	10.4453
171.79	10.4423
171.80	10.4393
171.82	10.4364
171.84	10.4335
171.85	10.4308
171.87	10.4284
171.89	10.4260
171.90	10.4235
171.92	10.4215
171.93	10.4191
171.95	10.4171
171.97	10.4152
171.98	10.4132
172.00	10.4114
172.02	10.4096
172.04	10.4078
172.05	10.4060
172.07	10.4045
172.08	10.4031
172.10	10.4017
172.12	10.4005
172.13	10.3993
172.15	10.3982
172.17	10.3973
172.18	10.3962
172.20	10.3951
172.22	10.3942
172.23	10.3933
172.25	10.3924
172.27	10.3916
172.29	10.3908
172.30	10.3904
172.32	10.3896
172.34	10.3891
172.35	10.3888
172.37	10.3886
172.38	10.3880
172.40	10.3879
172.42	10.3876
172.43	10.3871
172.45	10.3869
172.47	10.3868
172.48	10.3865
172.50	10.3863
172.52	10.3863
172.54	10.3861
172.55	10.3862
172.57	10.3862
172.58	10.3863
172.60	10.3865
172.62	10.3868
172.64	10.3869
172.65	10.3872
172.67	10.3874
172.69	10.3875
172.70	10.3878
172.72	10.3880
172.74	10.3883
172.75	10.3887
172.77	10.3892
172.78	10.3897
172.80	10.3902
172.82	10.3908
172.83	10.3912
172.85	10.3917
172.86	10.3922
172.88	10.3928
172.90	10.3933
172.92	10.3940
172.94	10.3945
172.95	10.3950
172.97	10.3957
172.99	10.3964
173.00	10.3971
173.02	10.3977
173.04	10.3984
173.05	10.3992
173.07	10.3998
173.08	10.4004
173.10	10.4011
173.11	10.4019
173.13	10.4028
173.15	10.4038
173.17	10.4045
173.18	10.4053
173.20	10.4062
173.22	10.4071
173.24	10.4077
173.25	10.4087
173.27	10.4096
173.28	10.4104
173.30	10.4111
173.32	10.4122
173.33	10.4128
173.35	10.4140
173.37	10.4149
173.38	10.4160
173.40	10.4169
173.42	10.4181
173.43	10.4192
173.45	10.4202
173.47	10.4210
173.48	10.4222
173.50	10.4233
173.52	10.4242
173.53	10.4250
173.55	10.4261
173.57	10.4272
173.58	10.4281
173.60	10.4293
173.62	10.4301
173.63	10.4312
173.65	10.4322
173.67	10.4333
173.68	10.4342
173.70	10.4353
173.72	10.4366
173.73	10.4376
173.75	10.4388
173.77	10.4399
173.78	10.4409
173.80	10.4422
173.82	10.4434
173.84	10.4445
173.85	10.4457
173.87	10.4467
173.88	10.4479
173.90	10.4490
173.92	10.4502
173.94	10.4515
173.95	10.4525
173.97	10.4537
173.98	10.4547
174.00	10.4562
174.02	10.4574
174.03	10.4586
174.05	10.4597
174.07	10.4609
174.08	10.4621
174.10	10.4634
174.12	10.4647
174.14	10.4661
174.15	10.4675
174.17	10.4690
174.18	10.4702
174.20	10.4714
174.22	10.4728
174.23	10.4740
174.25	10.4754
174.27	10.4766
174.28	10.4780
174.30	10.4791
174.32	10.4804
174.33	10.4815
174.35	10.4830
174.37	10.4844
174.38	10.4856
174.40	10.4869
174.42	10.4883
174.44	10.4895
174.45	10.4908
174.47	10.4921
174.48	10.4933
174.50	10.4947
174.52	10.4959
174.54	10.4971
174.55	10.4984
174.57	10.4997
174.58	10.5008
174.60	10.5022
174.61	10.5036
174.63	10.5048
174.65	10.5059
174.67	10.5072
174.68	10.5083
174.69	10.5094
174.71	10.5107
174.73	10.5120
174.75	10.5132
174.77	10.5147
174.78	10.5158
174.80	10.5170
174.82	10.5181
174.83	10.5195
174.85	10.5207
174.87	10.5220
174.88	10.5231
174.90	10.5243
174.92	10.5257
174.93	10.5268
174.95	10.5281
174.97	10.5293
174.98	10.5305
175.00	10.5319
175.01	10.5331
175.03	10.5339
175.05	10.5352
175.06	10.5361
175.09	10.5374
175.10	10.5384
175.12	10.5400
175.13	10.5413
175.15	10.5426
175.16	10.5439
175.18	10.5452
175.19	10.5465
175.21	10.5476
175.23	10.5490
175.25	10.5502
175.26	10.5514
175.28	10.5527
175.30	10.5539
175.32	10.5552
175.33	10.5564
175.35	10.5577
175.37	10.5587
175.38	10.5600
175.40	10.5611
175.41	10.5621
175.43	10.5634
175.45	10.5648
175.46	10.5659
175.48	10.5669
175.50	10.5683
175.51	10.5692
175.53	10.5703
175.55	10.5716
175.57	10.5728
175.58	10.5740
175.60	10.5755
175.62	10.5767
175.63	10.5779
175.65	10.5790
175.67	10.5799
175.68	10.5812
175.69	10.5822
175.72	10.5833
175.73	10.5847
175.75	10.5859
175.76	10.5870
175.78	10.5880
175.80	10.5892
175.81	10.5904
175.83	10.5916
175.85	10.5927
175.87	10.5939
175.88	10.5950
175.90	10.5960
175.91	10.5971
175.93	10.5983
175.95	10.5996
175.96	10.6008
175.98	10.6019
176.00	10.6030
176.01	10.6041
176.03	10.6053
176.05	10.6065
176.07	10.6076
176.08	10.6088
176.10	10.6100
176.12	10.6113
176.13	10.6127
176.15	10.6142
176.16	10.6152
176.18	10.6167
176.20	10.6177
176.21	10.6190
176.23	10.6203
176.25	10.6214
176.26	10.6224
176.28	10.6236
176.30	10.6250
176.31	10.6261
176.33	10.6274
176.35	10.6289
176.37	10.6300
176.39	10.6315
176.40	10.6329
176.42	10.6341
176.43	10.6353
176.45	10.6367
176.47	10.6382
176.48	10.6394
176.50	10.6408
176.52	10.6420
176.53	10.6435
176.55	10.6446
176.57	10.6459
176.58	10.6473
176.60	10.6488
176.61	10.6500
176.63	10.6512
176.65	10.6525
176.66	10.6536
176.68	10.6549
176.70	10.6561
176.72	10.6572
176.74	10.6588
176.75	10.6602
176.77	10.6614
176.78	10.6627
176.80	10.6640
176.81	10.6653
176.83	10.6665
176.85	10.6679
176.86	10.6689
176.88	10.6701
176.90	10.6713
176.91	10.6726
176.93	10.6740
176.95	10.6753
176.97	10.6765
176.98	10.6776
177.00	10.6790
177.01	10.6802
177.03	10.6814
177.05	10.6826
177.07	10.6835
177.08	10.6847
177.10	10.6858
177.12	10.6871
177.13	10.6884
177.15	10.6896
177.16	10.6909
177.18	10.6920
177.19	10.6932
177.21	10.6945
177.23	10.6957
177.25	10.6969
177.26	10.6979
177.28	10.6990
177.30	10.7000
177.32	10.7012
177.33	10.7024
177.35	10.7037
177.37	10.7051
177.38	10.7061
177.40	10.7074
177.41	10.7085
177.43	10.7098
177.45	10.7111
177.46	10.7121
177.49	10.7132
177.50	10.7143
177.51	10.7154
177.53	10.7167
177.55	10.7181
177.57	10.7193
177.58	10.7204
177.60	10.7217
177.61	10.7229
177.63	10.7242
177.65	10.7255
177.66	10.7268
177.68	10.7281
177.70	10.7294
177.71	10.7304
177.73	10.7318
177.75	10.7331
177.76	10.7344
177.78	10.7360
177.80	10.7374
177.81	10.7387
177.83	10.7400
177.85	10.7415
177.87	10.7428
177.88	10.7440
177.90	10.7453
177.91	10.7465
177.93	10.7478
177.94	10.7493
177.96	10.7505
177.98	10.7519
178.00	10.7532
178.01	10.7544
178.03	10.7557
178.05	10.7569
178.06	10.7581
178.08	10.7594
178.10	10.7606
178.12	10.7621
178.13	10.7633
178.15	10.7647
178.16	10.7659
178.18	10.7673
178.19	10.7684
178.21	10.7696
178.23	10.7710
178.25	10.7724
178.26	10.7736
178.28	10.7748
178.30	10.7760
178.31	10.7772
178.33	10.7784
178.35	10.7798
178.36	10.7811
178.38	10.7824
178.40	10.7835
178.41	10.7848
178.43	10.7863
178.44	10.7876
178.46	10.7890
178.48	10.7902
178.50	10.7914
178.51	10.7929
178.53	10.7943
178.55	10.7957
178.56	10.7971
178.58	10.7986
178.60	10.7999
178.61	10.8011
178.63	10.8025
178.65	10.8037
178.66	10.8050
178.68	10.8064
178.69	10.8076
178.72	10.8090
178.73	10.8103
178.75	10.8117
178.76	10.8131
178.78	10.8144
178.80	10.8157
178.81	10.8171
178.83	10.8184
178.85	10.8198
178.86	10.8212
178.88	10.8227
178.90	10.8241
178.91	10.8252
178.93	10.8268
178.94	10.8282
178.96	10.8295
178.97	10.8309
179.00	10.8323
179.01	10.8338
179.03	10.8351
179.05	10.8363
179.06	10.8374
179.08	10.8386
179.09	10.8399
179.11	10.8412
179.13	10.8425
179.15	10.8440
179.16	10.8453
179.18	10.8466
179.19	10.8478
179.21	10.8487
179.23	10.8500
179.25	10.8513
179.26	10.8525
179.28	10.8539
179.30	10.8553
179.31	10.8567
179.33	10.8582
179.35	10.8594
179.36	10.8607
179.38	10.8620
179.39	10.8634
179.41	10.8647
179.43	10.8660
179.44	10.8673
179.46	10.8685
179.47	10.8695
179.49	10.8708
179.51	10.8718
179.53	10.8732
179.54	10.8745
179.56	10.8757
179.58	10.8770
179.59	10.8784
179.61	10.8795
179.63	10.8809
179.65	10.8822
179.66	10.8834
179.68	10.8846
179.69	10.8861
179.71	10.8875
179.73	10.8887
179.75	10.8901
179.76	10.8915
179.78	10.8929
179.80	10.8943
179.81	10.8955
179.83	10.8967
179.85	10.8979
179.86	10.8990
179.88	10.9003
179.90	10.9014
179.91	10.9026
179.93	10.9041
179.94	10.9053
179.96	10.9066
179.98	10.9078
179.99	10.9091
180.01	10.9103
180.03	10.9114
180.05	10.9128
180.06	10.9140
180.08	10.9152
180.09	10.9167
180.11	10.9177
180.13	10.9190
180.14	10.9204
180.16	10.9217
180.18	10.9228
180.19	10.9242
180.21	10.9254
180.22	10.9265
180.24	10.9276
180.26	10.9288
180.28	10.9302
180.29	10.9314
180.31	10.9327
180.33	10.9342
180.34	10.9353
180.36	10.9366
180.38	10.9380
180.40	10.9391
180.41	10.9404
180.43	10.9417
180.44	10.9427
180.46	10.9440
180.48	10.9452
180.50	10.9464
180.51	10.9478
180.53	10.9490
180.54	10.9502
180.56	10.9517
180.57	10.9529
180.59	10.9543
180.61	10.9555
180.63	10.9569
180.65	10.9583
180.66	10.9595
180.68	10.9609
180.69	10.9622
180.71	10.9634
180.72	10.9648
180.75	10.9661
180.76	10.9673
180.78	10.9687
180.80	10.9698
180.81	10.9712
180.83	10.9725
180.84	10.9736
180.86	10.9750
180.88	10.9762
180.89	10.9776
180.91	10.9792
180.92	10.9804
180.94	10.9817
180.96	10.9831
180.97	10.9844
180.99	10.9857
181.01	10.9871
181.03	10.9883
181.05	10.9894
181.06	10.9907
181.08	10.9922
181.09	10.9933
181.11	10.9948
181.13	10.9961
181.14	10.9973
181.16	10.9986
181.18	10.9999
181.19	11.0010
181.21	11.0023
181.22	11.0034
181.24	11.0046
181.25	11.0059
181.28	11.0072
181.29	11.0084
181.31	11.0097
181.33	11.0111
181.34	11.0124
181.35	11.0136
181.37	11.0149
181.39	11.0163
181.41	11.0176
181.43	11.0189
181.44	11.0202
181.45	11.0216
181.47	11.0228
181.49	11.0242
181.51	11.0257
181.53	11.0270
181.54	11.0283
181.56	11.0298
181.58	11.0309
181.59	11.0324
181.61	11.0336
181.63	11.0348
181.64	11.0358
181.66	11.0369
181.68	11.0382
181.69	11.0395
181.71	11.0408
181.72	11.0424
181.74	11.0437
181.76	11.0451
181.77	11.0464
181.79	11.0478
181.80	11.0490
181.82	11.0503
181.84	11.0516
181.86	11.0530
181.87	11.0542
181.89	11.0556
181.91	11.0569
181.93	11.0583
181.94	11.0596
181.95	11.0609
181.97	11.0623
181.99	11.0635
182.01	11.0648
182.03	11.0661
182.04	11.0673
182.06	11.0687
182.08	11.0700
182.09	11.0712
182.10	11.0728
182.13	11.0742
182.14	11.0758
182.16	11.0772
182.18	11.0785
182.19	11.0797
182.21	11.0808
182.22	11.0821
182.24	11.0832
182.26	11.0847
182.28	11.0862
182.29	11.0873
182.30	11.0887
182.32	11.0902
182.34	11.0913
182.36	11.0926
182.38	11.0940
182.39	11.0953
182.40	11.0964
182.43	11.0979
182.44	11.0992
182.45	11.1004
182.47	11.1018
182.49	11.1030
182.50	11.1043
182.53	11.1057
182.54	11.1069
182.55	11.1085
182.57	11.1097
182.59	11.1110
182.60	11.1122
182.62	11.1137
182.64	11.1144
182.65	11.1156
182.68	11.1171
182.69	11.1183
182.70	11.1196
182.72	11.1209
182.73	11.1222
182.75	11.1235
182.77	11.1247
182.78	11.1260
182.80	11.1272
182.82	11.1286
182.84	11.1299
182.85	11.1311
182.87	11.1327
182.89	11.1339
182.90	11.1350
182.92	11.1366
182.94	11.1378
182.95	11.1392
182.97	11.1407
182.99	11.1418
183.00	11.1431
183.02	11.1444
183.04	11.1455
183.05	11.1469
183.07	11.1483
183.09	11.1497
183.10	11.1510
183.12	11.1522
183.14	11.1534
183.15	11.1548
183.17	11.1558
183.19	11.1570
183.20	11.1583
183.22	11.1596
183.24	11.1610
183.25	11.1624
183.27	11.1636
183.29	11.1648
183.30	11.1660
183.32	11.1673
183.34	11.1685
183.36	11.1696
183.37	11.1708
183.38	11.1718
183.40	11.1732
183.42	11.1744
183.43	11.1755
183.45	11.1768
183.47	11.1780
183.48	11.1792
183.50	11.1805
183.52	11.1818
183.54	11.1830
183.55	11.1844
183.57	11.1857
183.58	11.1870
183.60	11.1884
183.62	11.1895
183.64	11.1908
183.65	11.1920
183.67	11.1934
183.69	11.1946
183.70	11.1961
183.72	11.1975
183.74	11.1985
183.75	11.2000
183.77	11.2011
183.78	11.2024
183.80	11.2036
183.81	11.2047
183.84	11.2060
183.85	11.2076
183.87	11.2088
183.89	11.2100
183.90	11.2114
183.92	11.2126
183.94	11.2139
183.95	11.2151
183.97	11.2164
183.98	11.2176
184.00	11.2187
184.02	11.2199
184.04	11.2211
184.05	11.2225
184.07	11.2238
184.09	11.2251
184.10	11.2264
184.12	11.2277
184.14	11.2287
184.15	11.2300
184.17	11.2314
184.19	11.2327
184.20	11.2341
184.22	11.2353
184.24	11.2366
184.25	11.2380
184.27	11.2393
184.29	11.2405
184.30	11.2419
184.32	11.2432
184.34	11.2443
184.35	11.2458
184.37	11.2471
184.38	11.2483
184.40	11.2497
184.42	11.2511
184.44	11.2523
184.45	11.2538
184.47	11.2550
184.49	11.2562
184.50	11.2575
184.52	11.2587
184.54	11.2600
184.55	11.2613
184.57	11.2625
184.58	11.2639
184.60	11.2651
184.62	11.2665
184.64	11.2678
184.65	11.2693
184.67	11.2705
184.69	11.2718
184.70	11.2731
184.72	11.2743
184.73	11.2756
184.75	11.2770
184.77	11.2783
184.79	11.2797
184.80	11.2809
184.82	11.2821
184.83	11.2834
184.85	11.2846
184.87	11.2858
184.89	11.2871
184.90	11.2886
184.92	11.2898
184.94	11.2910
184.95	11.2924
184.97	11.2938
184.98	11.2950
185.00	11.2964
185.02	11.2977
185.04	11.2989
185.05	11.3002
185.07	11.3016
185.09	11.3028
185.10	11.3042
185.12	11.3056
185.14	11.3070
185.15	11.3085
185.17	11.3099
185.18	11.3107
185.20	11.3119
185.22	11.3131
185.24	11.3147
185.25	11.3162
185.27	11.3176
185.29	11.3190
185.30	11.3204
185.32	11.3215
185.34	11.3227
185.35	11.3239
185.37	11.3251
185.38	11.3264
185.40	11.3277
185.42	11.3289
185.44	11.3303
185.45	11.3316
185.47	11.3328
185.48	11.3341
185.50	11.3355
185.52	11.3369
185.53	11.3383
185.55	11.3396
185.57	11.3408
185.59	11.3422
185.60	11.3434
185.62	11.3448
185.64	11.3462
185.65	11.3476
185.67	11.3489
185.69	11.3504
185.70	11.3518
185.72	11.3532
185.74	11.3547
185.75	11.3560
185.77	11.3573
185.79	11.3586
185.80	11.3600
185.82	11.3613
185.84	11.3628
185.85	11.3640
185.87	11.3655
185.89	11.3669
185.91	11.3684
185.92	11.3696
185.94	11.3710
185.95	11.3724
185.97	11.3738
185.98	11.3752
186.00	11.3765
186.02	11.3778
186.04	11.3793
186.05	11.3807
186.07	11.3821
186.09	11.3836
186.11	11.3850
186.12	11.3865
186.13	11.3881
186.15	11.3896
186.17	11.3906
186.18	11.3921
186.20	11.3937
186.22	11.3952
186.23	11.3967
186.25	11.3983
186.27	11.3994
186.29	11.4008
186.30	11.4024
186.32	11.4036
186.33	11.4049
186.35	11.4062
186.37	11.4073
186.39	11.4087
186.40	11.4101
186.42	11.4114
186.43	11.4127
186.45	11.4143
186.47	11.4156
186.49	11.4170
186.50	11.4182
186.52	11.4193
186.54	11.4207
186.55	11.4218
186.57	11.4229
186.59	11.4242
186.60	11.4256
186.62	11.4269
186.64	11.4283
186.65	11.4296
186.67	11.4310
186.69	11.4322
186.70	11.4332
186.72	11.4343
186.74	11.4355
186.75	11.4366
186.77	11.4378
186.79	11.4392
186.80	11.4405
186.82	11.4419
186.84	11.4432
186.85	11.4447
186.87	11.4459
186.89	11.4473
186.91	11.4487
186.93	11.4502
186.94	11.4515
186.95	11.4530
186.97	11.4544
186.99	11.4558
187.00	11.4571
187.03	11.4584
187.04	11.4601
187.05	11.4615
187.07	11.4631
187.09	11.4646
187.10	11.4659
187.12	11.4673
187.14	11.4688
187.15	11.4700
187.17	11.4714
187.18	11.4728
187.20	11.4743
187.22	11.4756
187.23	11.4772
187.25	11.4788
187.27	11.4803
187.29	11.4816
187.30	11.4831
187.32	11.4846
187.34	11.4860
187.35	11.4874
187.37	11.4888
187.39	11.4901
187.40	11.4916
187.42	11.4932
187.44	11.4946
187.45	11.4960
187.47	11.4975
187.49	11.4990
187.50	11.5005
187.52	11.5019
187.53	11.5033
187.55	11.5045
187.57	11.5059
187.59	11.5076
187.60	11.5090
187.62	11.5105
187.64	11.5122
187.65	11.5137
187.67	11.5147
187.68	11.5162
187.70	11.5176
187.72	11.5186
187.74	11.5198
187.75	11.5213
187.77	11.5227
187.79	11.5242
187.80	11.5257
187.82	11.5270
187.84	11.5282
187.85	11.5295
187.87	11.5308
187.88	11.5325
187.90	11.5338
187.92	11.5353
187.93	11.5365
187.95	11.5378
187.97	11.5390
187.99	11.5403
188.00	11.5416
188.02	11.5428
188.04	11.5442
188.05	11.5455
188.07	11.5467
188.08	11.5480
188.10	11.5495
188.11	11.5508
188.14	11.5520
188.16	11.5533
188.17	11.5545
188.19	11.5559
188.20	11.5571
188.22	11.5584
188.24	11.5598
188.25	11.5614
188.27	11.5628
188.29	11.5644
188.30	11.5656
188.32	11.5669
188.34	11.5681
188.35	11.5695
188.37	11.5708
188.39	11.5722
188.40	11.5736
188.42	11.5751
188.43	11.5765
188.45	11.5777
188.47	11.5790
188.49	11.5804
188.50	11.5818
188.52	11.5830
188.54	11.5844
188.55	11.5857
188.57	11.5872
188.58	11.5886
188.60	11.5900
188.62	11.5914
188.64	11.5927
188.65	11.5941
188.67	11.5954
188.69	11.5967
188.70	11.5980
188.72	11.5993
188.74	11.6007
188.75	11.6020
188.77	11.6035
188.79	11.6049
188.80	11.6064
188.82	11.6077
188.83	11.6092
188.85	11.6104
188.87	11.6118
188.89	11.6131
188.90	11.6144
188.92	11.6156
188.94	11.6170
188.95	11.6184
188.97	11.6197
188.98	11.6209
189.00	11.6226
189.02	11.6239
189.04	11.6253
189.05	11.6268
189.07	11.6281
189.09	11.6296
189.10	11.6309
189.12	11.6324
189.13	11.6337
189.15	11.6350
189.17	11.6363
189.19	11.6378
189.20	11.6391
189.22	11.6404
189.23	11.6420
189.25	11.6434
189.27	11.6446
189.29	11.6460
189.30	11.6475
189.32	11.6487
189.34	11.6501
189.35	11.6515
189.37	11.6529
189.38	11.6543
189.40	11.6558
189.42	11.6573
189.43	11.6587
189.45	11.6602
189.47	11.6615
189.49	11.6630
189.50	11.6644
189.52	11.6657
189.53	11.6669
189.55	11.6681
189.57	11.6695
189.59	11.6707
189.60	11.6722
189.62	11.6734
189.64	11.6748
189.65	11.6761
189.67	11.6773
189.69	11.6788
189.70	11.6802
189.72	11.6813
189.74	11.6829
189.75	11.6844
189.77	11.6853
189.79	11.6869
189.81	11.6883
189.82	11.6900
189.84	11.6913
189.85	11.6927
189.87	11.6941
189.88	11.6954
189.90	11.6969
189.93	11.6982
189.94	11.6996
189.95	11.7009
189.97	11.7021
189.99	11.7036
190.00	11.7052
190.02	11.7065
190.04	11.7079
190.05	11.7095
190.08	11.7109
190.09	11.7123
190.10	11.7138
190.12	11.7149
190.13	11.7162
190.15	11.7176
190.17	11.7189
190.19	11.7205
190.20	11.7219
190.22	11.7235
190.24	11.7249
190.25	11.7260
190.27	11.7274
190.28	11.7287
190.30	11.7300
190.32	11.7315
190.34	11.7329
190.35	11.7340
190.37	11.7355
190.39	11.7368
190.40	11.7383
190.42	11.7397
190.43	11.7413
190.45	11.7426
190.47	11.7441
190.48	11.7457
190.50	11.7469
190.52	11.7482
190.53	11.7495
190.55	11.7507
190.57	11.7521
190.59	11.7535
190.60	11.7550
190.62	11.7562
190.63	11.7576
190.65	11.7587
190.67	11.7602
190.68	11.7615
190.70	11.7626
190.72	11.7640
190.74	11.7653
190.75	11.7666
190.77	11.7681
190.79	11.7694
190.81	11.7708
190.82	11.7720
190.83	11.7735
190.85	11.7748
190.87	11.7761
190.88	11.7775
190.90	11.7787
190.92	11.7801
190.93	11.7815
190.95	11.7827
190.97	11.7842
190.99	11.7856
191.00	11.7869
191.02	11.7883
191.04	11.7896
191.06	11.7910
191.07	11.7921
191.09	11.7935
191.10	11.7948
191.12	11.7961
191.13	11.7974
191.15	11.7988
191.17	11.8002
191.18	11.8015
191.20	11.8030
191.22	11.8044
191.24	11.8058
191.25	11.8069
191.27	11.8082
191.29	11.8096
191.30	11.8109
191.32	11.8121
191.33	11.8134
191.35	11.8148
191.37	11.8165
191.38	11.8179
191.40	11.8193
191.42	11.8209
191.43	11.8225
191.45	11.8241
191.47	11.8256
191.49	11.8270
191.50	11.8285
191.52	11.8298
191.54	11.8312
191.55	11.8327
191.56	11.8344
191.58	11.8359
191.60	11.8371
191.62	11.8387
191.63	11.8402
191.65	11.8417
191.67	11.8430
191.69	11.8444
191.70	11.8457
191.72	11.8470
191.73	11.8485
191.75	11.8498
191.77	11.8513
191.78	11.8528
191.80	11.8542
191.82	11.8557
191.83	11.8571
191.85	11.8586
191.87	11.8599
191.88	11.8612
191.90	11.8626
191.92	11.8640
191.93	11.8653
191.95	11.8666
191.97	11.8681
191.99	11.8694
192.00	11.8707
192.02	11.8723
192.03	11.8736
192.05	11.8752
192.07	11.8765
192.08	11.8780
192.10	11.8792
192.12	11.8805
192.13	11.8818
192.15	11.8832
192.16	11.8847
192.18	11.8862
192.20	11.8875
192.22	11.8890
192.23	11.8906
192.25	11.8919
192.27	11.8932
192.28	11.8947
192.30	11.8961
192.32	11.8975
192.33	11.8987
192.35	11.9001
192.37	11.9017
192.38	11.9032
192.40	11.9045
192.42	11.9058
192.43	11.9074
192.45	11.9086
192.46	11.9099
192.48	11.9114
192.50	11.9129
192.52	11.9144
192.53	11.9158
192.55	11.9171
192.57	11.9187
192.58	11.9202
192.60	11.9215
192.62	11.9227
192.63	11.9242
192.65	11.9255
192.67	11.9269
192.68	11.9281
192.70	11.9293
192.72	11.9306
192.73	11.9321
192.75	11.9335
192.77	11.9347
192.78	11.9361
192.80	11.9371
192.82	11.9384
192.83	11.9398
192.85	11.9410
192.87	11.9425
192.88	11.9437
192.90	11.9450
192.92	11.9462
192.94	11.9478
192.95	11.9491
192.97	11.9508
192.98	11.9522
193.00	11.9535
193.02	11.9550
193.04	11.9564
193.05	11.9576
193.07	11.9589
193.08	11.9602
193.10	11.9615
193.12	11.9629
193.14	11.9643
193.15	11.9658
193.17	11.9672
193.18	11.9685
193.20	11.9699
193.22	11.9713
193.23	11.9730
193.25	11.9743
193.26	11.9757
193.28	11.9772
193.30	11.9785
193.32	11.9797
193.33	11.9811
193.35	11.9824
193.36	11.9841
193.38	11.9855
193.40	11.9870
193.42	11.9883
193.43	11.9897
193.45	11.9912
193.47	11.9927
193.49	11.9939
193.50	11.9953
193.52	11.9968
193.53	11.9982
193.55	11.9995
193.57	12.0009
193.58	12.0024
193.60	12.0037
193.62	12.0052
193.63	12.0065
193.65	12.0079
193.67	12.0094
193.68	12.0109
193.70	12.0123
193.72	12.0138
193.73	12.0153
193.75	12.0167
193.77	12.0181
193.78	12.0195
193.80	12.0207
193.82	12.0222
193.83	12.0234
193.85	12.0247
193.86	12.0260
193.88	12.0275
193.90	12.0289
193.92	12.0303
193.93	12.0318
193.95	12.0332
193.97	12.0347
193.98	12.0361
194.00	12.0374
194.02	12.0388
194.03	12.0402
194.05	12.0414
194.07	12.0426
194.08	12.0438
194.10	12.0452
194.12	12.0467
194.14	12.0480
194.15	12.0493
194.17	12.0508
194.18	12.0521
194.20	12.0536
194.22	12.0550
194.24	12.0564
194.25	12.0576
194.27	12.0592
194.28	12.0605
194.30	12.0617
194.32	12.0630
194.33	12.0646
194.35	12.0661
194.37	12.0673
194.38	12.0689
194.40	12.0701
194.42	12.0717
194.43	12.0729
194.45	12.0743
194.47	12.0759
194.48	12.0772
194.50	12.0787
194.52	12.0803
194.54	12.0818
194.55	12.0832
194.57	12.0847
194.58	12.0862
194.60	12.0875
194.62	12.0890
194.63	12.0904
194.65	12.0916
194.67	12.0928
194.68	12.0943
194.70	12.0956
194.72	12.0972
194.74	12.0986
194.75	12.1001
194.77	12.1016
194.78	12.1031
194.80	12.1044
194.82	12.1057
194.84	12.1072
194.85	12.1083
194.87	12.1098
194.88	12.1114
194.90	12.1127
194.92	12.1142
194.93	12.1157
194.95	12.1171
194.97	12.1185
194.98	12.1197
195.00	12.1211
195.02	12.1224
195.04	12.1239
195.05	12.1252
195.07	12.1266
195.08	12.1281
195.10	12.1294
195.12	12.1309
195.13	12.1325
195.15	12.1340
195.17	12.1357
195.18	12.1369
195.20	12.1383
195.22	12.1397
195.23	12.1411
195.25	12.1427
195.27	12.1441
195.28	12.1455
195.30	12.1469
195.32	12.1484
195.33	12.1499
195.35	12.1511
195.37	12.1526
195.39	12.1536
195.40	12.1551
195.42	12.1566
195.44	12.1579
195.45	12.1593
195.47	12.1607
195.48	12.1621
195.50	12.1637
195.52	12.1650
195.53	12.1665
195.55	12.1678
195.57	12.1694
195.58	12.1708
195.60	12.1721
195.62	12.1733
195.64	12.1747
195.65	12.1760
195.66	12.1773
195.68	12.1787
195.70	12.1803
195.72	12.1817
195.73	12.1831
195.75	12.1846
195.77	12.1862
195.79	12.1876
195.81	12.1889
195.82	12.1904
195.84	12.1918
195.85	12.1931
195.87	12.1945
195.89	12.1959
195.90	12.1974
195.92	12.1988
195.94	12.2003
195.95	12.2016
195.97	12.2032
195.98	12.2042
196.00	12.2056
196.02	12.2070
196.03	12.2081
196.05	12.2095
196.07	12.2111
196.09	12.2124
196.10	12.2139
196.12	12.2152
196.13	12.2165
196.15	12.2180
196.17	12.2193
196.19	12.2207
196.20	12.2219
196.22	12.2233
196.23	12.2244
196.25	12.2256
196.27	12.2267
196.28	12.2279
196.30	12.2294
196.32	12.2308
196.33	12.2322
196.35	12.2336
196.37	12.2350
196.39	12.2363
196.40	12.2377
196.42	12.2394
196.44	12.2407
196.45	12.2419
196.47	12.2433
196.48	12.2446
196.50	12.2460
196.52	12.2476
196.54	12.2489
196.55	12.2504
196.57	12.2517
196.58	12.2529
196.60	12.2544
196.62	12.2556
196.63	12.2569
196.65	12.2583
196.67	12.2600
196.68	12.2616
196.70	12.2631
196.72	12.2646
196.74	12.2660
196.75	12.2675
196.77	12.2690
196.78	12.2705
196.80	12.2719
196.82	12.2734
196.83	12.2746
196.85	12.2762
196.87	12.2776
196.88	12.2791
196.90	12.2807
196.92	12.2822
196.93	12.2838
196.95	12.2852
196.97	12.2867
196.99	12.2881
197.00	12.2895
197.02	12.2909
197.04	12.2922
197.05	12.2936
197.07	12.2953
197.09	12.2966
197.10	12.2982
197.12	12.2998
197.13	12.3010
197.15	12.3026
197.17	12.3042
197.18	12.3055
197.20	12.3069
197.22	12.3083
197.24	12.3098
197.25	12.3113
197.27	12.3129
197.29	12.3143
197.30	12.3158
197.32	12.3172
197.34	12.3186
197.35	12.3200
197.37	12.3213
197.38	12.3226
197.40	12.3241
197.42	12.3254
197.43	12.3269
197.45	12.3282
197.47	12.3299
197.49	12.3314
197.50	12.3327
197.52	12.3342
197.54	12.3357
197.55	12.3370
197.57	12.3384
197.58	12.3397
197.60	12.3408
197.62	12.3422
197.64	12.3437
197.65	12.3451
197.67	12.3468
197.69	12.3481
197.70	12.3496
197.72	12.3510
197.74	12.3522
197.75	12.3535
197.77	12.3549
197.79	12.3563
197.80	12.3576
197.82	12.3590
197.84	12.3605
197.85	12.3619
197.87	12.3632
197.89	12.3644
197.90	12.3658
197.92	12.3672
197.93	12.3687
197.95	12.3703
197.97	12.3718
197.99	12.3731
198.00	12.3743
198.02	12.3756
198.03	12.3771
198.05	12.3786
198.07	12.3798
198.08	12.3812
198.10	12.3824
198.12	12.3839
198.13	12.3852
198.15	12.3864
198.17	12.3879
198.18	12.3891
198.20	12.3903
198.22	12.3919
198.24	12.3934
198.25	12.3949
198.27	12.3963
198.29	12.3977
198.30	12.3992
198.32	12.4006
198.33	12.4019
198.35	12.4032
198.37	12.4045
198.38	12.4057
198.40	12.4071
198.42	12.4086
198.44	12.4099
198.45	12.4113
198.47	12.4129
198.49	12.4141
198.50	12.4155
198.52	12.4169
198.53	12.4184
198.55	12.4198
198.57	12.4212
198.59	12.4226
198.60	12.4241
198.62	12.4256
198.63	12.4268
198.65	12.4284
198.67	12.4298
198.69	12.4310
198.70	12.4325
198.72	12.4338
198.74	12.4352
198.75	12.4369
198.77	12.4384
198.78	12.4397
198.80	12.4413
198.82	12.4426
198.84	12.4441
198.85	12.4456
198.87	12.4472
198.88	12.4485
198.90	12.4501
198.92	12.4515
198.94	12.4529
198.95	12.4543
198.97	12.4558
198.98	12.4571
199.00	12.4586
199.02	12.4600
199.03	12.4615
199.05	12.4630
199.07	12.4644
199.09	12.4658
199.10	12.4673
199.12	12.4688
199.13	12.4701
199.15	12.4714
199.17	12.4727
199.18	12.4741
199.20	12.4753
199.22	12.4768
199.24	12.4782
199.25	12.4796
199.27	12.4811
199.29	12.4824
199.30	12.4838
199.32	12.4852
199.33	12.4865
199.35	12.4877
199.37	12.4892
199.39	12.4904
199.40	12.4917
199.42	12.4932
199.44	12.4945
199.45	12.4960
199.47	12.4974
199.48	12.4988
199.50	12.5001
199.52	12.5015
199.53	12.5026
199.55	12.5039
199.57	12.5052
199.58	12.5065
199.60	12.5080
199.62	12.5095
199.63	12.5109
199.65	12.5124
199.67	12.5138
199.69	12.5150
199.70	12.5164
199.72	12.5178
199.73	12.5191
199.75	12.5206
199.77	12.5219
199.78	12.5233
199.80	12.5248
199.82	12.5264
199.83	12.5277
199.85	12.5290
199.87	12.5303
199.89	12.5315
199.90	12.5331
199.92	12.5346
199.93	12.5358
199.95	12.5372
199.96	12.5384
199.98	12.5397
200.00	12.5412
200.02	12.5428
200.03	12.5443
200.05	12.5458
200.06	12.5471
200.08	12.5485
200.10	12.5498
200.12	12.5515
200.13	12.5526
200.15	12.5539
200.17	12.5555
200.19	12.5569
200.20	12.5584
200.22	12.5599
200.23	12.5614
200.25	12.5628
200.27	12.5642
200.28	12.5654
200.30	12.5669
200.32	12.5683
200.33	12.5695
200.35	12.5711
200.37	12.5724
200.38	12.5735
200.40	12.5751
