Filename:	D:\TGAdata\„∆√ŒœÈ\20150506\20%10mm.pdid

Temperature (°„C)	Heat Flow Endo Up (mW)
10.19	-2.6403
10.19	-2.5805
10.20	-2.5396
10.19	-2.5148
10.20	-2.5010
10.20	-2.4938
10.20	-2.4891
10.21	-2.4843
10.21	-2.4771
10.21	-2.4668
10.22	-2.4532
10.22	-2.4360
10.23	-2.4152
10.24	-2.3915
10.25	-2.3659
10.25	-2.3386
10.26	-2.3104
10.27	-2.2819
10.28	-2.2535
10.29	-2.2265
10.30	-2.2006
10.32	-2.1763
10.33	-2.1542
10.35	-2.1344
10.36	-2.1165
10.37	-2.1009
10.39	-2.0878
10.40	-2.0766
10.42	-2.0677
10.43	-2.0604
10.44	-2.0546
10.45	-2.0501
10.48	-2.0468
10.50	-2.0446
10.51	-2.0433
10.52	-2.0425
10.53	-2.0420
10.55	-2.0418
10.57	-2.0415
10.58	-2.0407
10.60	-2.0397
10.62	-2.0380
10.63	-2.0354
10.65	-2.0320
10.66	-2.0277
10.68	-2.0221
10.69	-2.0154
10.71	-2.0074
10.73	-1.9979
10.75	-1.9873
10.76	-1.9749
10.77	-1.9612
10.79	-1.9461
10.80	-1.9296
10.82	-1.9116
10.83	-1.8924
10.85	-1.8715
10.87	-1.8494
10.89	-1.8258
10.90	-1.8008
10.92	-1.7748
10.93	-1.7474
10.95	-1.7189
10.97	-1.6893
10.99	-1.6586
11.00	-1.6271
11.02	-1.5945
11.03	-1.5609
11.05	-1.5266
11.07	-1.4917
11.08	-1.4558
11.10	-1.4190
11.11	-1.3814
11.13	-1.3432
11.15	-1.3046
11.16	-1.2651
11.18	-1.2252
11.19	-1.1854
11.21	-1.1452
11.23	-1.1047
11.25	-1.0639
11.26	-1.0227
11.28	-0.9816
11.29	-0.9403
11.31	-0.8990
11.33	-0.8574
11.35	-0.8159
11.37	-0.7740
11.38	-0.7322
11.40	-0.6907
11.41	-0.6493
11.43	-0.6081
11.44	-0.5668
11.46	-0.5256
11.48	-0.4844
11.50	-0.4435
11.51	-0.4025
11.52	-0.3620
11.54	-0.3215
11.56	-0.2814
11.58	-0.2413
11.59	-0.2019
11.61	-0.1625
11.63	-0.1235
11.65	-0.0847
11.66	-0.0464
11.68	-0.0083
11.69	0.0294
11.71	0.0668
11.72	0.1039
11.74	0.1402
11.76	0.1766
11.78	0.2128
11.79	0.2489
11.80	0.2847
11.82	0.3200
11.84	0.3549
11.85	0.3894
11.88	0.4236
11.89	0.4575
11.91	0.4908
11.93	0.5238
11.94	0.5562
11.96	0.5882
11.97	0.6198
11.99	0.6509
12.01	0.6816
12.02	0.7120
12.03	0.7422
12.05	0.7721
12.08	0.8014
12.09	0.8305
12.11	0.8593
12.12	0.8877
12.14	0.9156
12.16	0.9431
12.18	0.9704
12.19	0.9976
12.21	1.0243
12.23	1.0508
12.25	1.0767
12.26	1.1023
12.28	1.1277
12.29	1.1527
12.31	1.1773
12.33	1.2015
12.34	1.2254
12.36	1.2490
12.38	1.2723
12.40	1.2953
12.41	1.3178
12.43	1.3400
12.44	1.3621
12.46	1.3836
12.48	1.4052
12.49	1.4266
12.51	1.4474
12.52	1.4681
12.54	1.4883
12.56	1.5084
12.58	1.5281
12.59	1.5474
12.61	1.5664
12.63	1.5852
12.64	1.6035
12.66	1.6219
12.68	1.6398
12.70	1.6577
12.71	1.6752
12.73	1.6925
12.74	1.7093
12.76	1.7261
12.77	1.7426
12.79	1.7588
12.81	1.7748
12.83	1.7904
12.84	1.8059
12.85	1.8214
12.87	1.8366
12.89	1.8515
12.91	1.8662
12.92	1.8807
12.94	1.8949
12.96	1.9090
12.98	1.9227
13.00	1.9361
13.01	1.9493
13.03	1.9624
13.04	1.9754
13.05	1.9882
13.07	2.0008
13.09	2.0134
13.11	2.0256
13.13	2.0377
13.15	2.0496
13.16	2.0614
13.17	2.0733
13.19	2.0848
13.21	2.0963
13.23	2.1073
13.24	2.1183
13.26	2.1289
13.28	2.1393
13.29	2.1497
13.31	2.1598
13.33	2.1696
13.34	2.1796
13.35	2.1893
13.37	2.1988
13.39	2.2081
13.40	2.2173
13.42	2.2266
13.44	2.2358
13.46	2.2446
13.48	2.2533
13.49	2.2619
13.51	2.2706
13.53	2.2790
13.54	2.2875
13.56	2.2956
13.58	2.3037
13.59	2.3117
13.61	2.3194
13.63	2.3271
13.64	2.3346
13.66	2.3421
13.68	2.3495
13.70	2.3567
13.71	2.3639
13.73	2.3708
13.74	2.3779
13.76	2.3846
13.78	2.3912
13.80	2.3978
13.81	2.4043
13.83	2.4108
13.85	2.4173
13.86	2.4238
13.88	2.4303
13.90	2.4366
13.91	2.4426
13.93	2.4483
13.94	2.4543
13.96	2.4599
13.98	2.4655
13.99	2.4711
14.01	2.4765
14.03	2.4819
14.05	2.4871
14.07	2.4924
14.08	2.4973
14.09	2.5025
14.11	2.5075
14.13	2.5121
14.15	2.5170
14.16	2.5217
14.18	2.5264
14.19	2.5312
14.21	2.5358
14.23	2.5403
14.24	2.5450
14.26	2.5495
14.28	2.5537
14.30	2.5581
14.31	2.5623
14.33	2.5664
14.35	2.5705
14.37	2.5746
14.38	2.5784
14.40	2.5824
14.41	2.5863
14.43	2.5899
14.45	2.5935
14.47	2.5973
14.48	2.6007
14.50	2.6041
14.52	2.6077
14.53	2.6113
14.55	2.6151
14.56	2.6188
14.58	2.6224
14.60	2.6258
14.61	2.6293
14.63	2.6324
14.65	2.6356
14.66	2.6388
14.68	2.6418
14.70	2.6448
14.72	2.6477
14.73	2.6504
14.75	2.6532
14.76	2.6559
14.78	2.6587
14.80	2.6615
14.81	2.6641
14.83	2.6668
14.85	2.6695
14.86	2.6722
14.88	2.6748
14.90	2.6777
14.91	2.6802
14.93	2.6826
14.95	2.6850
14.96	2.6876
14.98	2.6900
14.99	2.6924
15.01	2.6950
15.03	2.6972
15.05	2.6995
15.06	2.7019
15.08	2.7041
15.10	2.7064
15.12	2.7084
15.13	2.7104
15.15	2.7124
15.16	2.7144
15.18	2.7165
15.20	2.7187
15.21	2.7209
15.23	2.7230
15.25	2.7252
15.26	2.7273
15.28	2.7289
15.30	2.7307
15.31	2.7328
15.33	2.7348
15.35	2.7366
15.37	2.7386
15.38	2.7403
15.40	2.7420
15.42	2.7436
15.44	2.7451
15.45	2.7467
15.47	2.7482
15.48	2.7499
15.50	2.7516
15.52	2.7534
15.53	2.7551
15.55	2.7570
15.57	2.7586
15.59	2.7604
15.61	2.7618
15.62	2.7634
15.63	2.7649
15.65	2.7663
15.66	2.7678
15.68	2.7692
15.70	2.7708
15.71	2.7724
15.73	2.7739
15.75	2.7755
15.76	2.7767
15.78	2.7779
15.80	2.7791
15.82	2.7805
15.83	2.7814
15.85	2.7826
15.87	2.7838
15.88	2.7853
15.90	2.7870
15.92	2.7886
15.93	2.7902
15.95	2.7917
15.97	2.7929
15.98	2.7943
16.00	2.7956
16.01	2.7968
16.03	2.7982
16.05	2.7997
16.07	2.8007
16.08	2.8019
16.10	2.8030
16.12	2.8041
16.13	2.8051
16.15	2.8062
16.17	2.8074
16.19	2.8084
16.20	2.8093
16.22	2.8104
16.23	2.8114
16.25	2.8125
16.27	2.8134
16.28	2.8144
16.30	2.8157
16.32	2.8168
16.33	2.8179
16.34	2.8188
16.36	2.8199
16.38	2.8208
16.40	2.8217
16.41	2.8225
16.43	2.8236
16.45	2.8246
16.47	2.8253
16.48	2.8262
16.50	2.8273
16.52	2.8282
16.53	2.8291
16.55	2.8300
16.57	2.8310
16.58	2.8321
16.60	2.8332
16.62	2.8342
16.64	2.8350
16.65	2.8357
16.67	2.8366
16.69	2.8373
16.70	2.8380
16.72	2.8387
16.73	2.8396
16.75	2.8404
16.77	2.8413
16.78	2.8419
16.80	2.8426
16.82	2.8434
16.83	2.8441
16.85	2.8450
16.87	2.8456
16.88	2.8464
16.90	2.8471
16.92	2.8478
16.94	2.8485
16.95	2.8494
16.97	2.8500
16.99	2.8507
17.00	2.8515
17.02	2.8523
17.04	2.8530
17.05	2.8539
17.07	2.8547
17.09	2.8557
17.10	2.8567
17.12	2.8577
17.14	2.8586
17.15	2.8594
17.17	2.8605
17.19	2.8614
17.20	2.8622
17.22	2.8630
17.24	2.8639
17.25	2.8647
17.27	2.8655
17.29	2.8662
17.30	2.8666
17.32	2.8673
17.34	2.8679
17.35	2.8686
17.37	2.8692
17.38	2.8700
17.40	2.8708
17.42	2.8717
17.44	2.8726
17.46	2.8734
17.48	2.8743
17.48	2.8752
17.50	2.8761
17.52	2.8771
17.53	2.8780
17.55	2.8790
17.57	2.8797
17.58	2.8806
17.60	2.8815
17.62	2.8821
17.64	2.8828
17.65	2.8835
17.67	2.8844
17.69	2.8851
17.70	2.8860
17.72	2.8865
17.74	2.8872
17.75	2.8877
17.77	2.8885
17.79	2.8891
17.80	2.8900
17.82	2.8909
17.84	2.8916
17.85	2.8927
17.87	2.8936
17.88	2.8945
17.90	2.8953
17.92	2.8958
17.94	2.8965
17.95	2.8973
17.97	2.8980
17.99	2.8986
18.01	2.8994
18.02	2.9000
18.03	2.9006
18.05	2.9010
18.07	2.9017
18.08	2.9024
18.10	2.9031
18.12	2.9036
18.14	2.9043
18.15	2.9048
18.17	2.9054
18.18	2.9061
18.20	2.9068
18.22	2.9076
18.23	2.9085
18.25	2.9092
18.26	2.9099
18.28	2.9105
18.30	2.9110
18.32	2.9117
18.33	2.9123
18.35	2.9128
18.37	2.9133
18.38	2.9137
18.40	2.9145
18.42	2.9150
18.44	2.9153
18.45	2.9160
18.47	2.9166
18.48	2.9169
18.50	2.9175
18.52	2.9178
18.53	2.9183
18.55	2.9187
18.57	2.9194
18.59	2.9201
18.60	2.9208
18.62	2.9215
18.64	2.9221
18.65	2.9226
18.67	2.9231
18.68	2.9236
18.70	2.9241
18.72	2.9245
18.73	2.9250
18.75	2.9252
18.77	2.9257
18.78	2.9261
18.80	2.9265
18.82	2.9271
18.84	2.9274
18.85	2.9277
18.87	2.9280
18.88	2.9284
18.90	2.9287
18.92	2.9291
18.94	2.9297
18.96	2.9303
18.97	2.9310
18.99	2.9315
19.01	2.9321
19.02	2.9326
19.03	2.9332
19.05	2.9337
19.07	2.9342
19.08	2.9346
19.10	2.9349
19.12	2.9353
19.13	2.9357
19.15	2.9361
19.17	2.9364
19.19	2.9367
19.20	2.9373
19.22	2.9374
19.24	2.9376
19.25	2.9379
19.27	2.9381
19.28	2.9384
19.30	2.9388
19.32	2.9392
19.33	2.9397
19.35	2.9404
19.37	2.9411
19.38	2.9417
19.40	2.9422
19.42	2.9425
19.43	2.9430
19.45	2.9435
19.47	2.9438
19.49	2.9444
19.50	2.9448
19.52	2.9449
19.53	2.9452
19.55	2.9454
19.57	2.9457
19.58	2.9462
19.60	2.9465
19.62	2.9468
19.63	2.9471
19.65	2.9474
19.67	2.9478
19.69	2.9486
19.70	2.9492
19.72	2.9497
19.74	2.9503
19.75	2.9507
19.77	2.9512
19.78	2.9516
19.80	2.9520
19.82	2.9523
19.84	2.9528
19.85	2.9533
19.87	2.9535
19.89	2.9540
19.90	2.9544
19.92	2.9544
19.93	2.9549
19.95	2.9551
19.96	2.9555
19.98	2.9558
20.00	2.9560
20.02	2.9564
20.03	2.9569
20.05	2.9575
20.07	2.9581
20.08	2.9588
20.10	2.9594
20.12	2.9598
20.13	2.9604
20.15	2.9609
20.17	2.9612
20.18	2.9616
20.20	2.9621
20.22	2.9625
20.23	2.9630
20.25	2.9633
20.27	2.9637
20.28	2.9640
20.30	2.9643
20.32	2.9646
20.34	2.9651
20.35	2.9653
20.37	2.9653
20.38	2.9655
20.40	2.9660
20.42	2.9666
20.44	2.9673
20.45	2.9678
20.46	2.9682
20.48	2.9687
20.50	2.9694
20.52	2.9700
20.54	2.9704
20.55	2.9710
20.57	2.9713
20.58	2.9717
20.60	2.9719
20.62	2.9724
20.64	2.9725
20.65	2.9728
20.66	2.9731
20.68	2.9734
20.70	2.9738
20.72	2.9742
20.73	2.9745
20.75	2.9748
20.77	2.9753
20.78	2.9760
20.80	2.9768
20.82	2.9774
20.83	2.9782
20.85	2.9786
20.87	2.9792
20.89	2.9796
20.90	2.9803
20.92	2.9808
20.93	2.9811
20.95	2.9817
20.96	2.9819
20.98	2.9820
21.00	2.9823
21.02	2.9826
21.04	2.9829
21.05	2.9833
21.07	2.9836
21.09	2.9842
21.10	2.9845
21.12	2.9848
21.13	2.9852
21.15	2.9857
21.17	2.9864
21.18	2.9870
21.20	2.9877
21.21	2.9881
21.23	2.9885
21.25	2.9890
21.27	2.9894
21.28	2.9899
21.30	2.9903
21.32	2.9908
21.33	2.9911
21.34	2.9915
21.36	2.9919
21.38	2.9927
21.40	2.9932
21.42	2.9934
21.43	2.9938
21.45	2.9941
21.47	2.9945
21.49	2.9949
21.50	2.9956
21.52	2.9962
21.53	2.9967
21.55	2.9974
21.57	2.9980
21.58	2.9986
21.60	2.9990
21.61	2.9994
21.63	3.0001
21.65	3.0004
21.67	3.0008
21.68	3.0013
21.70	3.0018
21.72	3.0020
21.73	3.0026
21.75	3.0029
21.76	3.0031
21.78	3.0036
21.80	3.0039
21.81	3.0041
21.83	3.0044
21.84	3.0048
21.86	3.0054
21.89	3.0061
21.90	3.0070
21.92	3.0076
21.93	3.0081
21.95	3.0087
21.97	3.0091
21.98	3.0096
22.00	3.0101
22.01	3.0105
22.03	3.0109
22.05	3.0114
22.07	3.0118
22.08	3.0122
22.10	3.0127
22.12	3.0129
22.13	3.0134
22.15	3.0137
22.16	3.0142
22.18	3.0145
22.20	3.0151
22.22	3.0154
22.23	3.0159
22.25	3.0168
22.27	3.0174
22.28	3.0180
22.30	3.0187
22.32	3.0192
22.33	3.0198
22.35	3.0203
22.37	3.0207
22.38	3.0211
22.40	3.0216
22.41	3.0219
22.43	3.0222
22.45	3.0226
22.47	3.0229
22.48	3.0232
22.50	3.0236
22.51	3.0237
22.53	3.0241
22.55	3.0244
22.56	3.0246
22.58	3.0251
22.60	3.0257
22.62	3.0262
22.64	3.0269
22.65	3.0276
22.67	3.0281
22.69	3.0287
22.70	3.0294
22.72	3.0298
22.73	3.0305
22.75	3.0311
22.77	3.0315
22.78	3.0319
22.80	3.0323
22.82	3.0326
22.83	3.0329
22.84	3.0332
22.86	3.0335
22.88	3.0340
22.90	3.0346
22.91	3.0349
22.93	3.0352
22.95	3.0356
22.97	3.0363
22.98	3.0370
23.00	3.0375
23.01	3.0384
23.03	3.0390
23.04	3.0397
23.06	3.0404
23.08	3.0409
23.09	3.0413
23.11	3.0418
23.13	3.0421
23.15	3.0425
23.17	3.0430
23.18	3.0436
23.20	3.0442
23.21	3.0448
23.23	3.0453
23.24	3.0457
23.26	3.0460
23.28	3.0464
23.30	3.0468
23.31	3.0472
23.32	3.0478
23.34	3.0484
23.36	3.0491
23.38	3.0498
23.40	3.0505
23.41	3.0511
23.43	3.0516
23.45	3.0520
23.46	3.0525
23.48	3.0530
23.50	3.0537
23.51	3.0542
23.53	3.0547
23.55	3.0552
23.56	3.0554
23.58	3.0559
23.59	3.0564
23.62	3.0568
23.63	3.0574
23.65	3.0577
23.66	3.0582
23.68	3.0589
23.69	3.0593
23.71	3.0603
23.73	3.0611
23.75	3.0616
23.76	3.0624
23.78	3.0630
23.80	3.0637
23.81	3.0641
23.83	3.0645
23.85	3.0648
23.86	3.0653
23.88	3.0657
23.90	3.0663
23.91	3.0665
23.93	3.0668
23.95	3.0672
23.96	3.0675
23.98	3.0679
24.00	3.0682
24.02	3.0686
24.03	3.0691
24.05	3.0698
24.06	3.0706
24.08	3.0712
24.09	3.0719
24.12	3.0724
24.13	3.0729
24.14	3.0735
24.17	3.0739
24.18	3.0744
24.20	3.0746
24.21	3.0751
24.23	3.0756
24.25	3.0759
24.26	3.0765
24.28	3.0768
24.29	3.0773
24.31	3.0776
24.32	3.0777
24.34	3.0780
24.36	3.0783
24.38	3.0788
24.40	3.0793
24.42	3.0797
24.43	3.0803
24.44	3.0807
24.46	3.0813
24.48	3.0818
24.50	3.0822
24.51	3.0827
24.53	3.0832
24.55	3.0838
24.56	3.0844
24.57	3.0850
24.59	3.0853
24.61	3.0856
24.63	3.0861
24.65	3.0862
24.66	3.0866
24.68	3.0868
24.69	3.0872
24.71	3.0876
24.73	3.0879
24.74	3.0883
24.76	3.0887
24.78	3.0893
24.80	3.0901
24.81	3.0907
24.82	3.0913
24.84	3.0919
24.86	3.0927
24.88	3.0933
24.90	3.0937
24.91	3.0941
24.93	3.0947
24.95	3.0951
24.96	3.0955
24.98	3.0959
24.99	3.0962
25.01	3.0965
25.03	3.0968
25.05	3.0974
25.06	3.0977
25.07	3.0982
25.09	3.0986
25.10	3.0991
25.13	3.0996
25.15	3.1001
25.16	3.1008
25.17	3.1015
25.19	3.1021
25.21	3.1027
25.23	3.1034
25.25	3.1038
25.27	3.1043
25.28	3.1048
25.29	3.1051
25.31	3.1055
25.33	3.1058
25.34	3.1064
25.36	3.1069
25.37	3.1072
25.39	3.1076
25.40	3.1080
25.42	3.1085
25.44	3.1086
25.46	3.1089
25.48	3.1093
25.50	3.1100
25.51	3.1105
25.53	3.1112
25.54	3.1118
25.56	3.1125
25.57	3.1131
25.59	3.1136
25.60	3.1141
25.63	3.1147
25.64	3.1150
25.66	3.1152
25.67	3.1154
25.69	3.1158
25.71	3.1162
25.73	3.1165
25.74	3.1169
25.75	3.1172
25.78	3.1178
25.79	3.1180
25.81	3.1185
25.83	3.1188
25.84	3.1191
25.86	3.1197
25.88	3.1207
25.89	3.1214
25.91	3.1219
25.93	3.1226
25.94	3.1230
25.95	3.1234
25.98	3.1239
26.00	3.1244
26.01	3.1248
26.03	3.1254
26.04	3.1258
26.06	3.1263
26.07	3.1266
26.09	3.1270
26.10	3.1274
26.12	3.1277
26.14	3.1281
26.16	3.1286
26.18	3.1290
26.19	3.1294
26.21	3.1297
26.23	3.1305
26.24	3.1313
26.25	3.1320
26.27	3.1327
26.29	3.1331
26.30	3.1337
26.32	3.1342
26.34	3.1347
26.35	3.1351
26.38	3.1356
26.39	3.1361
26.40	3.1366
26.43	3.1371
26.45	3.1376
26.45	3.1380
26.48	3.1385
26.50	3.1389
26.51	3.1395
26.52	3.1401
26.54	3.1406
26.55	3.1412
26.57	3.1417
26.59	3.1423
26.60	3.1430
26.62	3.1435
26.64	3.1443
26.65	3.1449
26.68	3.1456
26.69	3.1461
26.71	3.1466
26.73	3.1472
26.74	3.1477
26.76	3.1481
26.77	3.1487
26.79	3.1494
26.81	3.1499
26.83	3.1504
26.84	3.1508
26.86	3.1513
26.87	3.1516
26.89	3.1520
26.91	3.1523
26.93	3.1527
26.94	3.1532
26.95	3.1540
26.97	3.1545
26.99	3.1552
27.01	3.1556
27.03	3.1562
27.04	3.1566
27.06	3.1571
27.07	3.1576
27.09	3.1577
27.11	3.1581
27.13	3.1584
27.14	3.1587
27.16	3.1591
27.18	3.1597
27.19	3.1599
27.20	3.1605
27.22	3.1610
27.24	3.1612
27.26	3.1616
27.28	3.1622
27.29	3.1626
27.30	3.1631
27.32	3.1636
27.34	3.1639
27.36	3.1644
27.38	3.1649
27.39	3.1655
27.41	3.1657
27.43	3.1661
27.44	3.1664
27.46	3.1666
27.48	3.1669
27.49	3.1671
27.51	3.1674
27.53	3.1677
27.54	3.1681
27.55	3.1683
27.57	3.1687
27.59	3.1688
27.61	3.1693
27.63	3.1695
27.64	3.1698
27.66	3.1705
27.68	3.1711
27.69	3.1717
27.70	3.1724
27.73	3.1729
27.74	3.1733
27.75	3.1739
27.78	3.1743
27.79	3.1748
27.81	3.1752
27.82	3.1756
27.84	3.1759
27.86	3.1762
27.88	3.1767
27.89	3.1772
27.91	3.1776
27.93	3.1780
27.94	3.1783
27.96	3.1787
27.97	3.1789
27.99	3.1794
28.01	3.1799
28.03	3.1804
28.04	3.1810
28.05	3.1820
28.07	3.1827
28.09	3.1835
28.10	3.1842
28.13	3.1850
28.14	3.1854
28.16	3.1860
28.18	3.1865
28.19	3.1871
28.21	3.1877
28.23	3.1881
28.25	3.1886
28.26	3.1892
28.28	3.1897
28.29	3.1901
28.31	3.1904
28.32	3.1909
28.34	3.1915
28.36	3.1921
28.38	3.1928
28.40	3.1939
28.41	3.1946
28.43	3.1954
28.45	3.1960
28.46	3.1965
28.48	3.1973
28.49	3.1979
28.50	3.1987
28.53	3.1990
28.54	3.1998
28.56	3.2003
28.57	3.2010
28.59	3.2015
28.60	3.2019
28.63	3.2022
28.65	3.2027
28.66	3.2033
28.68	3.2038
28.69	3.2044
28.71	3.2048
28.73	3.2054
28.74	3.2060
28.76	3.2068
28.78	3.2074
28.79	3.2082
28.80	3.2087
28.82	3.2094
28.84	3.2102
28.86	3.2108
28.88	3.2113
28.89	3.2119
28.91	3.2125
28.93	3.2128
28.94	3.2134
28.96	3.2138
28.98	3.2142
29.00	3.2146
29.01	3.2151
29.03	3.2155
29.04	3.2161
29.06	3.2167
29.08	3.2172
29.09	3.2177
29.11	3.2182
29.13	3.2189
29.15	3.2196
29.16	3.2205
29.18	3.2209
29.20	3.2216
29.21	3.2224
29.23	3.2229
29.24	3.2233
29.25	3.2238
29.28	3.2244
29.29	3.2250
29.31	3.2253
29.32	3.2258
29.34	3.2260
29.36	3.2264
29.38	3.2268
29.39	3.2273
29.41	3.2278
29.43	3.2281
29.44	3.2286
29.46	3.2293
29.48	3.2299
29.49	3.2305
29.51	3.2309
29.53	3.2317
29.55	3.2324
29.56	3.2329
29.58	3.2334
29.59	3.2340
29.61	3.2345
29.63	3.2349
29.64	3.2351
29.66	3.2354
29.68	3.2358
29.70	3.2363
29.71	3.2364
29.73	3.2369
29.75	3.2373
29.76	3.2380
29.78	3.2383
29.79	3.2387
29.81	3.2393
29.82	3.2399
29.84	3.2404
29.86	3.2410
29.88	3.2416
29.89	3.2421
29.91	3.2427
29.93	3.2433
29.94	3.2435
29.96	3.2441
29.98	3.2444
30.00	3.2449
30.01	3.2453
30.03	3.2457
30.05	3.2461
30.06	3.2464
30.07	3.2467
30.09	3.2473
30.11	3.2478
30.13	3.2482
30.14	3.2485
30.16	3.2491
30.18	3.2496
30.19	3.2503
30.21	3.2512
30.23	3.2519
30.25	3.2527
30.26	3.2534
30.28	3.2540
30.30	3.2544
30.31	3.2549
30.33	3.2551
30.34	3.2555
30.36	3.2559
30.38	3.2563
30.40	3.2567
30.41	3.2572
30.43	3.2576
30.44	3.2582
30.46	3.2588
30.48	3.2593
30.49	3.2598
30.51	3.2602
30.53	3.2607
30.54	3.2616
30.56	3.2622
30.57	3.2627
30.59	3.2634
30.61	3.2641
30.63	3.2647
30.65	3.2653
30.66	3.2657
30.68	3.2662
30.70	3.2665
30.71	3.2670
30.73	3.2678
30.75	3.2683
30.76	3.2688
30.78	3.2692
30.80	3.2696
30.82	3.2702
30.83	3.2709
30.85	3.2715
30.86	3.2718
30.88	3.2723
30.89	3.2728
30.91	3.2735
30.93	3.2740
30.94	3.2749
30.96	3.2754
30.98	3.2761
31.00	3.2767
31.01	3.2773
31.03	3.2778
31.04	3.2783
31.06	3.2788
31.07	3.2792
31.09	3.2795
31.11	3.2800
31.13	3.2803
31.15	3.2809
31.16	3.2813
31.18	3.2818
31.19	3.2822
31.20	3.2827
31.23	3.2830
31.25	3.2837
31.26	3.2844
31.28	3.2852
31.30	3.2855
31.31	3.2863
31.33	3.2866
31.35	3.2871
31.36	3.2877
31.38	3.2883
31.40	3.2888
31.41	3.2895
31.43	3.2899
31.44	3.2904
31.46	3.2908
31.48	3.2913
31.50	3.2916
31.51	3.2921
31.53	3.2924
31.55	3.2929
31.56	3.2933
31.57	3.2938
31.59	3.2944
31.61	3.2951
31.63	3.2957
31.64	3.2963
31.66	3.2969
31.68	3.2973
31.70	3.2978
31.71	3.2985
31.73	3.2990
31.74	3.2996
31.76	3.3000
31.78	3.3004
31.79	3.3009
31.81	3.3014
31.83	3.3019
31.85	3.3023
31.86	3.3027
31.88	3.3032
31.90	3.3036
31.91	3.3041
31.93	3.3047
31.95	3.3051
31.96	3.3058
31.98	3.3064
32.00	3.3072
32.01	3.3076
32.02	3.3082
32.04	3.3088
32.06	3.3094
32.07	3.3099
32.09	3.3104
32.11	3.3108
32.13	3.3112
32.14	3.3118
32.16	3.3122
32.17	3.3124
32.20	3.3129
32.22	3.3133
32.23	3.3136
32.24	3.3141
32.26	3.3145
32.27	3.3150
32.29	3.3156
32.31	3.3161
32.33	3.3166
32.34	3.3173
32.36	3.3179
32.38	3.3185
32.39	3.3189
32.41	3.3195
32.43	3.3200
32.44	3.3203
32.46	3.3208
32.48	3.3210
32.49	3.3215
32.51	3.3218
32.53	3.3222
32.56	3.3226
32.57	3.3231
32.57	3.3235
32.59	3.3241
32.60	3.3244
32.63	3.3248
32.64	3.3252
32.66	3.3256
32.68	3.3264
32.70	3.3269
32.71	3.3276
32.73	3.3281
32.74	3.3288
32.76	3.3293
32.78	3.3298
32.80	3.3303
32.81	3.3310
32.83	3.3314
32.84	3.3318
32.86	3.3324
32.88	3.3328
32.89	3.3334
32.91	3.3339
32.92	3.3343
32.94	3.3347
32.97	3.3351
32.98	3.3353
32.99	3.3359
33.01	3.3363
33.02	3.3371
33.05	3.3378
33.06	3.3382
33.08	3.3390
33.09	3.3398
33.11	3.3404
33.13	3.3409
33.14	3.3417
33.16	3.3423
33.18	3.3427
33.20	3.3431
33.21	3.3435
33.23	3.3439
33.24	3.3441
33.26	3.3446
33.28	3.3449
33.29	3.3452
33.31	3.3455
33.32	3.3459
33.34	3.3463
33.36	3.3467
33.38	3.3472
33.39	3.3478
33.41	3.3484
33.42	3.3490
33.44	3.3500
33.46	3.3504
33.48	3.3510
33.49	3.3514
33.51	3.3518
33.52	3.3521
33.55	3.3526
33.56	3.3529
33.58	3.3534
33.59	3.3539
33.61	3.3542
33.63	3.3546
33.64	3.3548
33.65	3.3550
33.67	3.3554
33.69	3.3559
33.71	3.3564
33.72	3.3570
33.74	3.3576
33.75	3.3581
33.77	3.3587
33.79	3.3592
33.81	3.3597
33.83	3.3603
33.84	3.3608
33.86	3.3613
33.88	3.3618
33.89	3.3622
33.91	3.3625
33.92	3.3629
33.94	3.3634
33.96	3.3637
33.98	3.3643
33.99	3.3648
34.01	3.3652
34.02	3.3656
34.04	3.3661
34.06	3.3665
34.08	3.3670
34.09	3.3677
34.11	3.3685
34.13	3.3694
34.15	3.3699
34.16	3.3705
34.17	3.3712
34.19	3.3718
34.21	3.3722
34.23	3.3727
34.24	3.3732
34.26	3.3736
34.27	3.3743
34.29	3.3746
34.31	3.3751
34.33	3.3758
34.34	3.3763
34.36	3.3767
34.38	3.3772
34.40	3.3778
34.41	3.3782
34.43	3.3788
34.45	3.3794
34.45	3.3802
34.48	3.3810
34.49	3.3816
34.51	3.3824
34.53	3.3830
34.54	3.3837
34.55	3.3844
34.58	3.3849
34.59	3.3853
34.61	3.3857
34.63	3.3861
34.64	3.3866
34.66	3.3871
34.68	3.3876
34.69	3.3880
34.71	3.3884
34.73	3.3886
34.74	3.3891
34.76	3.3895
34.77	3.3899
34.79	3.3904
34.81	3.3911
34.83	3.3917
34.84	3.3925
34.86	3.3930
34.88	3.3938
34.90	3.3945
34.91	3.3950
34.93	3.3954
34.94	3.3962
34.96	3.3967
34.98	3.3972
34.99	3.3977
35.01	3.3979
35.02	3.3986
35.04	3.3991
35.06	3.3997
35.08	3.4004
35.09	3.4007
35.11	3.4013
35.13	3.4015
35.14	3.4021
35.16	3.4027
35.17	3.4033
35.19	3.4042
35.20	3.4049
35.22	3.4057
35.24	3.4062
35.26	3.4066
35.27	3.4070
35.29	3.4074
35.31	3.4081
35.33	3.4087
35.34	3.4091
35.35	3.4097
35.37	3.4104
35.39	3.4110
35.41	3.4114
35.43	3.4119
35.44	3.4122
35.46	3.4127
35.47	3.4132
35.49	3.4139
35.51	3.4145
35.52	3.4151
35.54	3.4159
35.56	3.4166
35.58	3.4170
35.59	3.4177
35.61	3.4180
35.63	3.4184
35.64	3.4190
35.66	3.4194
35.67	3.4197
35.69	3.4202
35.71	3.4206
35.72	3.4211
35.74	3.4213
35.75	3.4217
35.77	3.4221
35.79	3.4226
35.80	3.4231
35.82	3.4235
35.84	3.4238
35.86	3.4246
35.87	3.4253
35.89	3.4261
35.91	3.4267
35.93	3.4273
35.94	3.4278
35.95	3.4284
35.98	3.4289
35.99	3.4293
36.01	3.4297
36.02	3.4302
36.04	3.4307
36.06	3.4310
36.08	3.4314
36.09	3.4317
36.11	3.4320
36.13	3.4322
36.14	3.4328
36.16	3.4332
36.18	3.4334
36.19	3.4342
36.21	3.4345
36.23	3.4353
36.24	3.4359
36.25	3.4364
36.27	3.4370
36.29	3.4374
36.31	3.4378
36.32	3.4383
36.34	3.4389
36.36	3.4393
36.38	3.4397
36.39	3.4402
36.41	3.4407
36.43	3.4410
36.44	3.4413
36.46	3.4418
36.48	3.4423
36.49	3.4428
36.51	3.4432
36.52	3.4437
36.54	3.4442
36.55	3.4449
36.58	3.4457
36.59	3.4465
36.60	3.4472
36.63	3.4480
36.65	3.4485
36.66	3.4490
36.68	3.4495
36.69	3.4499
36.71	3.4504
36.73	3.4508
36.74	3.4516
36.76	3.4520
36.78	3.4526
36.80	3.4530
36.81	3.4533
36.83	3.4539
36.84	3.4545
36.86	3.4549
36.87	3.4552
36.88	3.4557
36.90	3.4563
36.93	3.4571
36.94	3.4579
36.95	3.4586
36.97	3.4593
36.99	3.4598
37.01	3.4602
37.02	3.4608
37.04	3.4616
37.05	3.4620
37.08	3.4626
37.09	3.4631
37.11	3.4635
37.12	3.4640
37.14	3.4643
37.15	3.4647
37.17	3.4653
37.20	3.4660
37.21	3.4665
37.23	3.4668
37.24	3.4674
37.26	3.4680
37.27	3.4686
37.30	3.4694
37.31	3.4699
37.33	3.4705
37.34	3.4712
37.36	3.4718
37.38	3.4726
37.39	3.4732
37.41	3.4736
37.43	3.4740
37.44	3.4745
37.46	3.4748
37.48	3.4756
37.49	3.4760
37.51	3.4765
37.52	3.4771
37.54	3.4775
37.56	3.4779
37.58	3.4786
37.59	3.4790
37.61	3.4798
37.63	3.4805
37.64	3.4814
37.66	3.4819
37.67	3.4826
37.69	3.4833
37.71	3.4840
37.73	3.4846
37.74	3.4853
37.76	3.4859
37.77	3.4864
37.79	3.4870
37.81	3.4874
37.82	3.4879
37.84	3.4883
37.86	3.4889
37.88	3.4894
37.89	3.4900
37.91	3.4904
37.93	3.4909
37.94	3.4916
37.96	3.4921
37.98	3.4927
37.99	3.4935
38.01	3.4941
38.03	3.4947
38.04	3.4954
38.06	3.4961
38.08	3.4966
38.09	3.4970
38.11	3.4976
38.13	3.4981
38.14	3.4984
38.16	3.4988
38.18	3.4993
38.19	3.4998
38.21	3.5003
38.23	3.5007
38.24	3.5010
38.26	3.5013
38.27	3.5019
38.30	3.5021
38.31	3.5026
38.33	3.5033
38.34	3.5039
38.36	3.5045
38.38	3.5052
38.40	3.5058
38.41	3.5064
38.43	3.5069
38.44	3.5072
38.46	3.5076
38.48	3.5081
38.49	3.5083
38.51	3.5087
38.52	3.5093
38.55	3.5097
38.56	3.5101
38.58	3.5105
38.59	3.5110
38.61	3.5114
38.63	3.5119
38.65	3.5123
38.66	3.5128
38.68	3.5136
38.69	3.5143
38.71	3.5152
38.74	3.5160
38.75	3.5166
38.75	3.5169
38.75	3.5175
38.77	3.5180
38.80	3.5184
38.82	3.5191
38.84	3.5197
38.86	3.5202
38.88	3.5207
38.89	3.5211
38.91	3.5214
38.93	3.5220
38.94	3.5226
38.96	3.5229
38.98	3.5233
38.99	3.5237
39.01	3.5242
39.02	3.5250
39.04	3.5256
39.06	3.5263
39.08	3.5270
39.09	3.5277
39.11	3.5282
39.13	3.5289
39.14	3.5294
39.15	3.5298
39.17	3.5303
39.19	3.5308
39.21	3.5313
39.23	3.5319
39.24	3.5322
39.26	3.5325
39.27	3.5330
39.29	3.5333
39.31	3.5338
39.33	3.5343
39.34	3.5349
39.35	3.5355
39.38	3.5365
39.39	3.5374
39.41	3.5381
39.43	3.5390
39.45	3.5398
39.46	3.5404
39.48	3.5413
39.49	3.5418
39.51	3.5425
39.52	3.5431
39.55	3.5438
39.56	3.5440
39.58	3.5446
39.59	3.5450
39.61	3.5454
39.63	3.5459
39.64	3.5464
39.66	3.5469
39.68	3.5473
39.70	3.5478
39.71	3.5484
39.73	3.5493
39.74	3.5500
39.76	3.5508
39.77	3.5516
39.79	3.5522
39.81	3.5528
39.83	3.5534
39.84	3.5542
39.86	3.5549
39.88	3.5554
39.89	3.5558
39.91	3.5564
39.93	3.5569
39.94	3.5573
39.96	3.5578
39.98	3.5583
39.99	3.5588
40.01	3.5591
40.02	3.5594
40.04	3.5601
40.06	3.5607
40.08	3.5614
40.09	3.5621
40.11	3.5630
40.13	3.5635
40.14	3.5642
40.16	3.5647
40.17	3.5654
40.19	3.5660
40.21	3.5663
40.23	3.5669
40.24	3.5674
40.25	3.5677
40.27	3.5683
40.29	3.5688
40.30	3.5692
40.32	3.5699
40.34	3.5702
40.36	3.5707
40.38	3.5713
40.40	3.5717
40.41	3.5725
40.43	3.5731
40.45	3.5736
40.45	3.5743
40.47	3.5750
40.49	3.5756
40.51	3.5763
40.52	3.5769
40.54	3.5776
40.56	3.5782
40.58	3.5787
40.59	3.5792
40.60	3.5797
40.63	3.5803
40.65	3.5807
40.66	3.5811
40.68	3.5815
40.69	3.5818
40.70	3.5823
40.72	3.5829
40.74	3.5834
40.76	3.5840
40.77	3.5847
40.79	3.5854
40.81	3.5861
40.83	3.5867
40.84	3.5875
40.86	3.5881
40.88	3.5887
40.89	3.5891
40.91	3.5895
40.93	3.5900
40.95	3.5904
40.96	3.5909
40.98	3.5914
40.99	3.5918
41.01	3.5922
41.03	3.5929
41.04	3.5934
41.05	3.5939
41.08	3.5943
41.09	3.5947
41.11	3.5953
41.13	3.5960
41.14	3.5967
41.16	3.5972
41.17	3.5979
41.19	3.5986
41.21	3.5992
41.23	3.5997
41.24	3.6002
41.26	3.6007
41.27	3.6012
41.29	3.6018
41.31	3.6022
41.33	3.6027
41.34	3.6031
41.36	3.6036
41.38	3.6042
41.39	3.6046
41.40	3.6050
41.43	3.6058
41.44	3.6062
41.46	3.6067
41.48	3.6075
41.49	3.6083
41.51	3.6091
41.52	3.6097
41.54	3.6101
41.56	3.6107
41.58	3.6112
41.59	3.6119
41.61	3.6125
41.63	3.6129
41.64	3.6133
41.66	3.6137
41.68	3.6143
41.69	3.6151
41.72	3.6153
41.73	3.6161
41.74	3.6164
41.76	3.6169
41.78	3.6175
41.79	3.6179
41.81	3.6186
41.83	3.6191
41.84	3.6199
41.86	3.6206
41.88	3.6214
41.89	3.6221
41.91	3.6228
41.93	3.6237
41.94	3.6240
41.96	3.6244
41.98	3.6250
41.99	3.6253
42.01	3.6257
42.02	3.6262
42.04	3.6265
42.05	3.6270
42.07	3.6275
42.09	3.6281
42.11	3.6288
42.12	3.6292
42.14	3.6296
42.15	3.6302
42.17	3.6309
42.19	3.6316
42.21	3.6322
42.23	3.6328
42.24	3.6334
42.26	3.6341
42.27	3.6344
42.30	3.6349
42.31	3.6355
42.33	3.6359
42.34	3.6364
42.36	3.6370
42.38	3.6377
42.39	3.6380
42.40	3.6386
42.43	3.6393
42.44	3.6397
42.45	3.6403
42.47	3.6409
42.49	3.6414
42.51	3.6422
42.52	3.6430
42.55	3.6438
42.56	3.6447
42.58	3.6454
42.59	3.6460
42.60	3.6466
42.63	3.6473
42.64	3.6479
42.66	3.6484
42.67	3.6488
42.69	3.6493
42.71	3.6500
42.73	3.6505
42.74	3.6511
42.75	3.6515
42.77	3.6520
42.79	3.6525
42.81	3.6528
42.83	3.6533
42.84	3.6539
42.86	3.6544
42.88	3.6553
42.90	3.6560
42.91	3.6569
42.93	3.6576
42.94	3.6582
42.95	3.6589
42.98	3.6596
42.98	3.6602
43.00	3.6606
43.02	3.6610
43.04	3.6616
43.06	3.6622
43.07	3.6626
43.09	3.6630
43.10	3.6635
43.12	3.6637
43.13	3.6643
43.15	3.6646
43.17	3.6650
43.19	3.6659
43.21	3.6664
43.23	3.6670
43.24	3.6678
43.25	3.6685
43.27	3.6691
43.29	3.6695
43.30	3.6703
43.33	3.6705
43.34	3.6712
43.36	3.6714
43.38	3.6718
43.40	3.6724
43.41	3.6730
43.43	3.6735
43.44	3.6739
43.45	3.6744
43.48	3.6747
43.49	3.6751
43.51	3.6756
43.52	3.6759
43.54	3.6765
43.55	3.6772
43.58	3.6779
43.59	3.6786
43.61	3.6794
43.63	3.6799
43.64	3.6805
43.65	3.6810
43.68	3.6815
43.69	3.6821
43.71	3.6828
43.72	3.6833
43.74	3.6841
43.75	3.6847
43.77	3.6850
43.79	3.6854
43.80	3.6858
43.82	3.6862
43.84	3.6866
43.86	3.6870
43.88	3.6874
43.90	3.6881
43.91	3.6890
43.93	3.6897
43.95	3.6904
43.96	3.6912
43.98	3.6918
43.99	3.6924
44.01	3.6931
44.02	3.6936
44.05	3.6942
44.06	3.6949
44.08	3.6955
44.09	3.6961
44.10	3.6969
44.12	3.6974
44.14	3.6978
44.15	3.6985
44.17	3.6988
44.19	3.6995
44.21	3.7003
44.23	3.7009
44.24	3.7016
44.26	3.7025
44.27	3.7032
44.29	3.7040
44.31	3.7045
44.32	3.7051
44.34	3.7056
44.35	3.7064
44.37	3.7071
44.39	3.7078
44.40	3.7082
44.43	3.7089
44.44	3.7094
44.46	3.7098
44.48	3.7103
44.49	3.7108
44.50	3.7112
44.52	3.7119
44.54	3.7123
44.55	3.7128
44.57	3.7134
44.59	3.7141
44.60	3.7148
44.62	3.7156
44.64	3.7163
44.66	3.7171
44.67	3.7178
44.69	3.7183
44.70	3.7190
44.72	3.7194
44.74	3.7199
44.76	3.7206
44.77	3.7209
44.79	3.7215
44.80	3.7220
44.82	3.7221
44.84	3.7227
44.86	3.7232
44.88	3.7236
44.89	3.7240
44.91	3.7246
44.93	3.7251
44.94	3.7260
44.95	3.7267
44.98	3.7274
44.99	3.7278
45.00	3.7286
45.02	3.7291
45.04	3.7297
45.06	3.7304
45.08	3.7310
45.09	3.7315
45.10	3.7321
45.13	3.7326
45.14	3.7329
45.15	3.7335
45.18	3.7340
45.19	3.7344
45.20	3.7347
45.22	3.7353
45.24	3.7360
45.26	3.7365
45.27	3.7371
45.29	3.7377
45.30	3.7384
45.32	3.7390
45.34	3.7395
45.36	3.7402
45.38	3.7407
45.40	3.7412
45.41	3.7418
45.42	3.7425
45.44	3.7431
45.45	3.7438
45.48	3.7444
45.49	3.7448
45.50	3.7452
45.52	3.7457
45.54	3.7462
45.55	3.7466
45.58	3.7472
45.59	3.7476
45.60	3.7481
45.62	3.7487
45.64	3.7494
45.66	3.7501
45.68	3.7509
45.69	3.7517
45.71	3.7524
45.72	3.7531
45.74	3.7538
45.76	3.7544
45.77	3.7546
45.79	3.7550
45.81	3.7557
45.82	3.7561
45.84	3.7566
45.85	3.7568
45.88	3.7574
45.89	3.7581
45.90	3.7587
45.93	3.7591
45.94	3.7596
45.96	3.7601
45.98	3.7607
45.99	3.7615
46.01	3.7621
46.02	3.7628
46.04	3.7633
46.06	3.7640
46.08	3.7647
46.09	3.7653
46.10	3.7658
46.13	3.7665
46.15	3.7667
46.16	3.7672
46.18	3.7677
46.19	3.7683
46.21	3.7687
46.22	3.7692
46.24	3.7697
46.26	3.7702
46.27	3.7707
46.29	3.7713
46.31	3.7719
46.33	3.7727
46.34	3.7735
46.36	3.7742
46.38	3.7750
46.39	3.7758
46.41	3.7764
46.43	3.7771
46.44	3.7778
46.45	3.7783
46.48	3.7789
46.49	3.7794
46.50	3.7797
46.52	3.7804
46.54	3.7811
46.56	3.7816
46.58	3.7820
46.59	3.7826
46.61	3.7829
46.63	3.7836
46.64	3.7841
46.65	3.7848
46.67	3.7858
46.69	3.7867
46.71	3.7876
46.73	3.7885
46.74	3.7892
46.76	3.7900
46.77	3.7906
46.79	3.7912
46.81	3.7917
46.83	3.7920
46.84	3.7925
46.86	3.7931
46.88	3.7935
46.89	3.7940
46.91	3.7945
46.92	3.7950
46.94	3.7955
46.96	3.7959
46.97	3.7964
46.99	3.7971
47.00	3.7978
47.02	3.7983
47.04	3.7991
47.06	3.7998
47.08	3.8004
47.09	3.8009
47.10	3.8016
47.12	3.8022
47.14	3.8029
47.15	3.8032
47.17	3.8036
47.19	3.8044
47.20	3.8047
47.23	3.8052
47.24	3.8058
47.26	3.8064
47.27	3.8069
47.29	3.8073
47.31	3.8078
47.33	3.8082
47.34	3.8089
47.35	3.8097
47.38	3.8104
47.39	3.8111
47.41	3.8118
47.43	3.8127
47.44	3.8134
47.46	3.8138
47.48	3.8143
47.49	3.8149
47.51	3.8154
47.52	3.8160
47.54	3.8166
47.56	3.8173
47.58	3.8176
47.59	3.8182
47.61	3.8185
47.62	3.8190
47.65	3.8193
47.66	3.8200
47.67	3.8204
47.69	3.8214
47.71	3.8220
47.73	3.8228
47.74	3.8235
47.76	3.8244
47.77	3.8249
47.79	3.8255
47.81	3.8262
47.83	3.8266
47.84	3.8272
47.86	3.8277
47.88	3.8282
47.89	3.8289
47.90	3.8297
47.92	3.8302
47.94	3.8307
47.96	3.8313
47.98	3.8317
48.00	3.8324
48.01	3.8330
48.02	3.8338
48.05	3.8346
48.06	3.8354
48.07	3.8363
48.09	3.8371
48.11	3.8379
48.13	3.8386
48.15	3.8394
48.16	3.8400
48.18	3.8406
48.19	3.8411
48.21	3.8418
48.23	3.8425
48.24	3.8431
48.26	3.8436
48.27	3.8441
48.29	3.8447
48.31	3.8451
48.33	3.8459
48.34	3.8465
48.35	3.8469
48.38	3.8479
48.39	3.8487
48.41	3.8496
48.43	3.8503
48.44	3.8510
48.46	3.8518
48.48	3.8523
48.50	3.8528
48.51	3.8533
48.52	3.8539
48.54	3.8545
48.55	3.8550
48.57	3.8558
48.59	3.8565
48.61	3.8571
48.63	3.8577
48.64	3.8582
48.65	3.8585
48.68	3.8589
48.69	3.8595
48.70	3.8601
48.72	3.8608
48.74	3.8615
48.76	3.8623
48.77	3.8629
48.80	3.8636
48.81	3.8641
48.83	3.8645
48.84	3.8650
48.86	3.8653
48.88	3.8656
48.89	3.8661
48.90	3.8665
48.92	3.8671
48.94	3.8677
48.96	3.8681
48.98	3.8685
48.99	3.8690
49.01	3.8693
49.02	3.8698
49.04	3.8704
49.06	3.8711
49.08	3.8717
49.09	3.8724
49.11	3.8729
49.13	3.8736
49.14	3.8742
49.16	3.8746
49.17	3.8753
49.19	3.8760
49.21	3.8764
49.23	3.8771
49.24	3.8776
49.26	3.8780
49.27	3.8787
49.29	3.8790
49.30	3.8794
49.33	3.8800
49.34	3.8805
49.36	3.8809
49.38	3.8813
49.39	3.8821
49.41	3.8826
49.43	3.8834
49.44	3.8841
49.46	3.8847
49.47	3.8852
49.49	3.8859
49.51	3.8865
49.52	3.8872
49.55	3.8877
49.56	3.8881
49.58	3.8886
49.59	3.8892
49.60	3.8896
49.62	3.8901
49.64	3.8904
49.66	3.8907
49.67	3.8913
49.70	3.8918
49.71	3.8923
49.73	3.8930
49.74	3.8939
49.76	3.8945
49.77	3.8953
49.79	3.8959
49.80	3.8965
49.82	3.8970
49.84	3.8974
49.86	3.8979
49.87	3.8985
49.89	3.8991
49.91	3.8997
49.93	3.9003
49.95	3.9009
49.96	3.9013
49.98	3.9019
49.99	3.9023
50.00	3.9028
50.02	3.9033
50.04	3.9041
50.06	3.9049
50.08	3.9056
50.09	3.9064
50.11	3.9072
50.13	3.9081
50.14	3.9090
50.16	3.9094
50.18	3.9100
50.19	3.9106
50.21	3.9113
50.22	3.9121
50.24	3.9129
50.26	3.9136
50.27	3.9142
50.29	3.9149
50.31	3.9153
50.33	3.9158
50.34	3.9165
50.36	3.9170
50.37	3.9174
50.39	3.9179
50.40	3.9186
50.43	3.9193
50.44	3.9202
50.46	3.9209
50.47	3.9218
50.49	3.9225
50.51	3.9233
50.53	3.9240
50.54	3.9246
50.56	3.9253
50.58	3.9259
50.59	3.9265
50.61	3.9272
50.63	3.9277
50.64	3.9282
50.66	3.9287
50.67	3.9292
50.69	3.9299
50.71	3.9307
50.73	3.9313
50.74	3.9319
50.76	3.9326
50.78	3.9332
50.80	3.9341
50.81	3.9348
50.82	3.9354
50.84	3.9358
50.86	3.9367
50.88	3.9373
50.89	3.9379
50.91	3.9385
50.93	3.9390
50.94	3.9395
50.96	3.9398
50.98	3.9403
50.99	3.9407
51.01	3.9411
51.03	3.9419
51.05	3.9424
51.06	3.9428
51.07	3.9433
51.09	3.9440
51.11	3.9447
51.13	3.9453
51.14	3.9458
51.16	3.9465
51.18	3.9470
51.19	3.9477
51.21	3.9482
51.22	3.9490
51.24	3.9495
51.26	3.9500
51.27	3.9507
51.29	3.9513
51.30	3.9516
51.32	3.9519
51.34	3.9524
51.36	3.9529
51.38	3.9535
51.40	3.9539
51.41	3.9543
51.43	3.9549
51.44	3.9554
51.46	3.9559
51.48	3.9566
51.49	3.9574
51.51	3.9578
51.52	3.9585
51.54	3.9591
51.56	3.9599
51.58	3.9605
51.59	3.9611
51.61	3.9614
51.63	3.9620
51.64	3.9625
51.66	3.9630
51.68	3.9636
51.70	3.9640
51.71	3.9646
51.73	3.9653
51.75	3.9658
51.76	3.9665
51.77	3.9673
51.79	3.9681
51.81	3.9689
51.83	3.9696
51.84	3.9705
51.86	3.9711
51.88	3.9718
51.89	3.9724
51.91	3.9729
51.92	3.9734
51.94	3.9739
51.95	3.9741
51.97	3.9746
51.99	3.9750
52.01	3.9754
52.03	3.9760
52.04	3.9767
52.06	3.9771
52.08	3.9776
52.09	3.9782
52.10	3.9786
52.12	3.9795
52.14	3.9801
52.16	3.9809
52.17	3.9815
52.19	3.9822
52.20	3.9831
52.23	3.9836
52.25	3.9843
52.26	3.9849
52.28	3.9853
52.29	3.9859
52.31	3.9863
52.32	3.9867
52.34	3.9873
52.36	3.9876
52.38	3.9882
52.39	3.9889
52.41	3.9893
52.43	3.9900
52.44	3.9906
52.45	3.9910
52.48	3.9917
52.49	3.9925
52.51	3.9931
52.52	3.9939
52.54	3.9944
52.56	3.9952
52.57	3.9960
52.59	3.9967
52.60	3.9972
52.63	3.9976
52.64	3.9981
52.66	3.9985
52.68	3.9991
52.69	3.9997
52.71	4.0002
52.72	4.0007
52.74	4.0012
52.75	4.0019
52.77	4.0024
52.79	4.0028
52.81	4.0036
52.82	4.0043
52.84	4.0050
52.86	4.0058
52.88	4.0064
52.89	4.0072
52.91	4.0080
52.93	4.0087
52.94	4.0094
52.96	4.0099
52.98	4.0103
53.00	4.0110
53.01	4.0113
53.03	4.0120
53.05	4.0126
53.06	4.0130
53.07	4.0136
53.09	4.0140
53.11	4.0146
53.13	4.0150
53.14	4.0157
53.16	4.0164
53.17	4.0171
53.19	4.0178
53.20	4.0186
53.22	4.0193
53.24	4.0202
53.26	4.0212
53.27	4.0218
53.29	4.0225
53.31	4.0229
53.33	4.0234
53.34	4.0240
53.36	4.0246
53.38	4.0253
53.40	4.0257
53.41	4.0263
53.43	4.0269
53.44	4.0273
53.46	4.0280
53.47	4.0287
53.49	4.0293
53.50	4.0301
53.52	4.0307
53.54	4.0313
53.55	4.0320
53.58	4.0328
53.59	4.0335
53.61	4.0343
53.63	4.0350
53.65	4.0355
53.66	4.0359
53.67	4.0364
53.69	4.0368
53.70	4.0375
53.72	4.0381
53.74	4.0385
53.76	4.0392
53.77	4.0399
53.79	4.0405
53.81	4.0410
53.83	4.0417
53.84	4.0425
53.85	4.0433
53.87	4.0442
53.89	4.0448
53.91	4.0455
53.93	4.0462
53.94	4.0468
53.96	4.0475
53.98	4.0482
54.00	4.0486
54.01	4.0491
54.02	4.0498
54.04	4.0503
54.06	4.0507
54.08	4.0512
54.09	4.0516
54.11	4.0522
54.13	4.0527
54.14	4.0529
54.16	4.0535
54.18	4.0542
54.19	4.0549
54.21	4.0556
54.22	4.0565
54.24	4.0571
54.26	4.0579
54.27	4.0587
54.30	4.0593
54.31	4.0597
54.32	4.0603
54.34	4.0607
54.36	4.0611
54.38	4.0617
54.39	4.0621
54.41	4.0626
54.42	4.0633
54.44	4.0639
54.46	4.0642
54.48	4.0647
54.49	4.0653
54.50	4.0660
54.52	4.0666
54.54	4.0675
54.56	4.0682
54.58	4.0688
54.59	4.0696
54.61	4.0703
54.63	4.0711
54.64	4.0715
54.65	4.0722
54.67	4.0726
54.69	4.0731
54.71	4.0738
54.73	4.0742
54.74	4.0747
54.75	4.0751
54.78	4.0758
54.80	4.0762
54.81	4.0767
54.83	4.0773
54.84	4.0778
54.86	4.0785
54.88	4.0793
54.89	4.0799
54.90	4.0807
54.93	4.0814
54.94	4.0821
54.96	4.0827
54.98	4.0833
54.99	4.0838
55.01	4.0843
55.02	4.0849
55.04	4.0853
55.06	4.0859
55.08	4.0865
55.09	4.0871
55.11	4.0876
55.13	4.0881
55.15	4.0886
55.16	4.0891
55.18	4.0893
55.20	4.0900
55.21	4.0908
55.23	4.0916
55.24	4.0924
55.26	4.0931
55.27	4.0937
55.29	4.0942
55.31	4.0948
55.32	4.0953
55.34	4.0958
55.35	4.0963
55.38	4.0968
55.39	4.0972
55.41	4.0976
55.43	4.0981
55.44	4.0986
55.45	4.0991
55.48	4.0997
55.50	4.1000
55.52	4.1006
55.54	4.1012
55.55	4.1018
55.55	4.1024
55.57	4.1031
55.58	4.1037
55.60	4.1045
55.63	4.1053
55.63	4.1056
55.65	4.1062
55.67	4.1067
55.69	4.1071
55.70	4.1078
55.72	4.1081
55.74	4.1085
55.75	4.1091
55.77	4.1096
55.79	4.1101
55.80	4.1104
55.83	4.1108
55.84	4.1112
55.86	4.1119
55.88	4.1125
55.89	4.1131
55.91	4.1139
55.93	4.1143
55.94	4.1150
55.96	4.1156
55.98	4.1162
56.00	4.1169
56.01	4.1173
56.02	4.1179
56.04	4.1185
56.06	4.1190
56.08	4.1196
56.09	4.1201
56.11	4.1208
56.13	4.1214
56.14	4.1217
56.16	4.1222
56.18	4.1229
56.19	4.1235
56.21	4.1244
56.23	4.1252
56.24	4.1261
56.26	4.1270
56.27	4.1276
56.29	4.1283
56.31	4.1290
56.33	4.1297
56.34	4.1303
56.36	4.1310
56.38	4.1316
56.39	4.1322
56.40	4.1328
56.43	4.1335
56.44	4.1339
56.46	4.1345
56.48	4.1350
56.49	4.1355
56.51	4.1361
56.52	4.1366
56.54	4.1372
56.55	4.1380
56.58	4.1386
56.59	4.1395
56.61	4.1402
56.63	4.1410
56.64	4.1416
56.66	4.1424
56.68	4.1430
56.69	4.1435
56.70	4.1440
56.72	4.1447
56.74	4.1452
56.76	4.1458
56.77	4.1461
56.79	4.1469
56.81	4.1473
56.83	4.1479
56.84	4.1483
56.86	4.1488
56.87	4.1495
56.89	4.1501
56.91	4.1510
56.93	4.1516
56.94	4.1521
56.96	4.1527
56.98	4.1534
56.99	4.1539
57.01	4.1543
57.03	4.1549
57.04	4.1555
57.06	4.1560
57.08	4.1564
57.09	4.1569
57.11	4.1573
57.13	4.1579
57.14	4.1584
57.16	4.1590
57.17	4.1596
57.19	4.1603
57.21	4.1607
57.23	4.1615
57.25	4.1624
57.26	4.1630
57.27	4.1639
57.29	4.1645
57.31	4.1650
57.33	4.1656
57.34	4.1662
57.36	4.1668
57.38	4.1672
57.39	4.1678
57.41	4.1682
57.43	4.1686
57.45	4.1690
57.46	4.1696
57.48	4.1702
57.49	4.1708
57.51	4.1715
57.52	4.1719
57.54	4.1725
57.56	4.1732
57.58	4.1741
57.59	4.1748
57.61	4.1756
57.63	4.1763
57.64	4.1769
57.65	4.1775
57.68	4.1783
57.69	4.1788
57.71	4.1794
57.73	4.1801
57.75	4.1806
57.76	4.1812
57.77	4.1817
57.80	4.1823
57.81	4.1827
57.83	4.1832
57.84	4.1836
57.86	4.1842
57.88	4.1845
57.90	4.1852
57.91	4.1860
57.93	4.1869
57.95	4.1875
57.96	4.1881
57.97	4.1889
57.99	4.1893
58.01	4.1900
58.03	4.1907
58.04	4.1913
58.06	4.1920
58.08	4.1926
58.09	4.1935
58.11	4.1939
58.13	4.1944
58.14	4.1949
58.16	4.1953
58.18	4.1958
58.19	4.1962
58.21	4.1969
58.23	4.1975
58.24	4.1983
58.26	4.1991
58.27	4.1998
58.29	4.2004
58.31	4.2011
58.33	4.2018
58.34	4.2024
58.36	4.2031
58.38	4.2036
58.39	4.2041
58.41	4.2046
58.43	4.2050
58.44	4.2056
58.46	4.2061
58.48	4.2064
58.49	4.2068
58.51	4.2071
58.52	4.2078
58.54	4.2083
58.56	4.2086
58.58	4.2094
58.59	4.2102
58.61	4.2109
58.63	4.2117
58.65	4.2124
58.66	4.2132
58.68	4.2139
58.69	4.2147
58.70	4.2151
58.73	4.2158
58.75	4.2166
58.76	4.2171
58.77	4.2175
58.79	4.2182
58.81	4.2188
58.83	4.2195
58.84	4.2201
58.86	4.2208
58.88	4.2214
58.90	4.2220
58.91	4.2227
58.93	4.2234
58.94	4.2243
58.96	4.2250
58.98	4.2258
58.99	4.2265
59.01	4.2271
59.03	4.2276
59.04	4.2282
59.06	4.2289
59.08	4.2295
59.09	4.2299
59.10	4.2306
59.12	4.2313
59.14	4.2317
59.16	4.2323
59.18	4.2327
59.20	4.2333
59.21	4.2340
59.23	4.2346
59.24	4.2354
59.25	4.2362
59.27	4.2369
59.29	4.2377
59.31	4.2384
59.33	4.2389
59.34	4.2397
59.36	4.2402
59.38	4.2409
59.39	4.2416
59.41	4.2423
59.43	4.2428
59.44	4.2433
59.46	4.2440
59.48	4.2446
59.49	4.2449
59.51	4.2456
59.53	4.2461
59.54	4.2467
59.56	4.2473
59.58	4.2481
59.59	4.2490
59.61	4.2498
59.63	4.2506
59.64	4.2514
59.66	4.2519
59.68	4.2527
59.69	4.2531
59.71	4.2537
59.73	4.2543
59.75	4.2548
59.76	4.2554
59.77	4.2561
59.79	4.2567
59.81	4.2571
59.83	4.2576
59.84	4.2579
59.86	4.2585
59.87	4.2589
59.89	4.2595
59.91	4.2600
59.92	4.2606
59.94	4.2612
59.96	4.2620
59.98	4.2626
60.00	4.2633
60.01	4.2640
60.02	4.2646
60.04	4.2653
60.06	4.2657
60.08	4.2662
60.09	4.2666
60.11	4.2670
60.13	4.2673
60.14	4.2677
60.15	4.2682
60.18	4.2687
60.19	4.2692
60.21	4.2696
60.23	4.2700
60.24	4.2706
60.26	4.2712
60.28	4.2721
60.29	4.2728
60.31	4.2736
60.33	4.2741
60.34	4.2748
60.36	4.2753
60.37	4.2758
60.39	4.2763
60.41	4.2769
60.43	4.2775
60.44	4.2780
60.46	4.2785
60.47	4.2790
60.49	4.2795
60.50	4.2799
60.52	4.2804
60.54	4.2808
60.56	4.2814
60.58	4.2819
60.59	4.2825
60.61	4.2834
60.63	4.2843
60.64	4.2847
60.66	4.2854
60.68	4.2859
60.69	4.2866
60.70	4.2874
60.73	4.2882
60.74	4.2888
60.76	4.2894
60.77	4.2899
60.79	4.2904
60.81	4.2909
60.83	4.2911
60.84	4.2914
60.86	4.2919
60.88	4.2924
60.89	4.2928
60.91	4.2935
60.93	4.2943
60.94	4.2951
60.96	4.2958
60.97	4.2963
60.99	4.2970
61.01	4.2974
61.02	4.2979
61.04	4.2985
61.06	4.2991
61.08	4.2995
61.09	4.3001
61.11	4.3007
61.13	4.3012
61.14	4.3017
61.15	4.3022
61.18	4.3027
61.19	4.3033
61.20	4.3038
61.22	4.3042
61.24	4.3048
61.26	4.3053
61.27	4.3060
61.29	4.3065
61.31	4.3072
61.33	4.3080
61.34	4.3084
61.36	4.3093
61.38	4.3096
61.40	4.3104
61.41	4.3106
61.42	4.3111
61.43	4.3121
61.46	4.3120
61.48	4.3129
61.49	4.3134
61.51	4.3143
61.52	4.3152
61.54	4.3153
61.55	4.3160
61.57	4.3168
61.59	4.3180
61.61	4.3190
61.63	4.3200
61.64	4.3205
61.65	4.3212
61.67	4.3211
61.69	4.3219
61.70	4.3225
61.73	4.3236
61.74	4.3238
61.76	4.3246
61.77	4.3256
61.79	4.3257
61.81	4.3266
61.83	4.3269
61.84	4.3280
61.86	4.3282
61.88	4.3289
61.89	4.3296
61.90	4.3303
61.92	4.3309
61.94	4.3317
61.96	4.3326
61.98	4.3331
62.00	4.3338
62.01	4.3347
62.03	4.3353
62.04	4.3361
62.05	4.3369
62.08	4.3375
62.09	4.3382
62.10	4.3388
62.13	4.3391
62.14	4.3398
62.16	4.3404
62.18	4.3411
62.19	4.3415
62.21	4.3422
62.23	4.3427
62.24	4.3433
62.26	4.3441
62.27	4.3449
62.29	4.3455
62.31	4.3462
62.32	4.3467
62.34	4.3475
62.35	4.3482
62.38	4.3488
62.39	4.3497
62.40	4.3504
62.42	4.3511
62.44	4.3518
62.46	4.3524
62.48	4.3528
62.49	4.3535
62.50	4.3539
62.52	4.3546
62.54	4.3551
62.56	4.3555
62.58	4.3562
62.59	4.3568
62.61	4.3576
62.62	4.3584
62.64	4.3590
62.66	4.3596
62.67	4.3602
62.69	4.3608
62.70	4.3615
62.72	4.3621
62.74	4.3627
62.75	4.3632
62.77	4.3636
62.79	4.3643
62.81	4.3648
62.82	4.3652
62.84	4.3656
62.85	4.3661
62.87	4.3667
62.89	4.3673
62.91	4.3679
62.93	4.3686
62.94	4.3694
62.95	4.3699
62.98	4.3707
62.99	4.3711
63.01	4.3717
63.02	4.3723
63.05	4.3730
63.06	4.3736
63.07	4.3743
63.09	4.3750
63.11	4.3758
63.13	4.3762
63.14	4.3766
63.15	4.3772
63.18	4.3774
63.19	4.3780
63.21	4.3788
63.23	4.3791
63.24	4.3798
63.25	4.3805
63.27	4.3813
63.29	4.3822
63.31	4.3831
63.32	4.3839
63.34	4.3845
63.36	4.3852
63.38	4.3855
63.39	4.3861
63.40	4.3866
63.43	4.3872
63.44	4.3878
63.45	4.3884
63.47	4.3889
63.49	4.3893
63.50	4.3899
63.52	4.3903
63.55	4.3909
63.56	4.3912
63.58	4.3919
63.59	4.3926
63.61	4.3933
63.63	4.3940
63.64	4.3947
63.66	4.3953
63.68	4.3959
63.69	4.3965
63.71	4.3971
63.73	4.3977
63.74	4.3983
63.75	4.3988
63.77	4.3993
63.79	4.3999
63.81	4.4002
63.83	4.4007
63.84	4.4013
63.85	4.4018
63.87	4.4022
63.89	4.4028
63.91	4.4034
63.93	4.4043
63.94	4.4049
63.96	4.4054
63.98	4.4063
63.99	4.4068
64.00	4.4073
64.03	4.4080
64.04	4.4086
64.06	4.4093
64.08	4.4098
64.09	4.4103
64.11	4.4109
64.13	4.4114
64.14	4.4119
64.16	4.4121
64.17	4.4126
64.19	4.4132
64.20	4.4137
64.23	4.4142
64.25	4.4147
64.26	4.4154
64.28	4.4162
64.29	4.4169
64.31	4.4176
64.33	4.4183
64.34	4.4191
64.36	4.4196
64.38	4.4202
64.39	4.4209
64.41	4.4215
64.43	4.4219
64.44	4.4224
64.46	4.4232
64.48	4.4237
64.50	4.4241
64.51	4.4245
64.53	4.4252
64.54	4.4258
64.56	4.4262
64.58	4.4270
64.59	4.4276
64.61	4.4283
64.63	4.4289
64.64	4.4296
64.66	4.4304
64.67	4.4310
64.70	4.4317
64.71	4.4323
64.73	4.4329
64.75	4.4337
64.76	4.4343
64.78	4.4351
64.80	4.4359
64.81	4.4363
64.83	4.4368
64.85	4.4376
64.86	4.4380
64.88	4.4385
64.89	4.4392
64.91	4.4399
64.93	4.4406
64.94	4.4413
64.96	4.4421
64.98	4.4428
65.00	4.4432
65.01	4.4440
65.03	4.4448
65.05	4.4455
65.06	4.4461
65.08	4.4467
65.09	4.4473
65.11	4.4478
65.13	4.4484
65.14	4.4491
65.16	4.4496
65.18	4.4502
65.20	4.4507
65.21	4.4512
65.23	4.4519
65.25	4.4525
65.26	4.4533
65.28	4.4539
65.30	4.4546
65.31	4.4552
65.33	4.4559
65.34	4.4566
65.36	4.4572
65.38	4.4578
65.39	4.4583
65.41	4.4591
65.43	4.4597
65.45	4.4604
65.46	4.4609
65.48	4.4613
65.50	4.4617
65.51	4.4622
65.53	4.4627
65.55	4.4631
65.56	4.4638
65.58	4.4645
65.59	4.4653
65.61	4.4660
65.63	4.4667
65.64	4.4674
65.66	4.4682
65.68	4.4689
65.70	4.4698
65.71	4.4704
65.72	4.4711
65.75	4.4718
65.76	4.4726
65.78	4.4732
65.80	4.4739
65.81	4.4745
65.83	4.4750
65.84	4.4755
65.87	4.4762
65.88	4.4766
65.89	4.4771
65.91	4.4779
65.93	4.4785
65.95	4.4795
65.96	4.4802
65.98	4.4812
66.00	4.4820
66.01	4.4824
66.03	4.4831
66.05	4.4840
66.06	4.4845
66.08	4.4849
66.09	4.4853
66.11	4.4859
66.13	4.4862
66.14	4.4868
66.16	4.4874
66.18	4.4880
66.20	4.4887
66.21	4.4892
66.23	4.4899
66.25	4.4905
66.26	4.4912
66.28	4.4920
66.30	4.4926
66.31	4.4932
66.33	4.4938
66.34	4.4943
66.36	4.4949
66.38	4.4956
66.39	4.4963
66.41	4.4967
66.43	4.4973
66.45	4.4981
66.46	4.4987
66.48	4.4991
66.50	4.4995
66.51	4.5000
66.53	4.5006
66.54	4.5011
66.56	4.5014
66.58	4.5020
66.59	4.5026
66.61	4.5034
66.63	4.5040
66.64	4.5047
66.66	4.5055
66.68	4.5062
66.70	4.5070
66.71	4.5077
66.72	4.5083
66.74	4.5091
66.76	4.5096
66.78	4.5101
66.80	4.5107
66.81	4.5112
66.83	4.5116
66.84	4.5122
66.86	4.5128
66.88	4.5132
66.90	4.5139
66.91	4.5143
66.93	4.5152
66.95	4.5157
66.96	4.5164
66.98	4.5171
67.00	4.5177
67.02	4.5181
67.03	4.5190
67.04	4.5197
67.06	4.5203
67.08	4.5208
67.09	4.5215
67.11	4.5218
67.13	4.5224
67.14	4.5229
67.16	4.5232
67.18	4.5237
67.20	4.5244
67.21	4.5247
67.23	4.5252
67.25	4.5259
67.26	4.5265
67.28	4.5273
67.30	4.5281
67.31	4.5287
67.33	4.5293
67.34	4.5299
67.36	4.5308
67.38	4.5314
67.39	4.5320
67.42	4.5326
67.43	4.5331
67.45	4.5338
67.47	4.5343
67.48	4.5348
67.50	4.5354
67.51	4.5358
67.53	4.5364
67.54	4.5370
67.57	4.5377
67.58	4.5383
67.59	4.5391
67.61	4.5397
67.63	4.5403
67.65	4.5410
67.66	4.5416
67.68	4.5422
67.70	4.5427
67.71	4.5433
67.73	4.5440
67.75	4.5445
67.76	4.5450
67.78	4.5456
67.80	4.5463
67.81	4.5469
67.83	4.5475
67.85	4.5482
67.86	4.5487
67.88	4.5493
67.89	4.5499
67.92	4.5503
67.93	4.5511
67.95	4.5519
67.97	4.5525
67.98	4.5534
68.00	4.5541
68.02	4.5548
68.03	4.5556
68.05	4.5564
68.06	4.5570
68.08	4.5577
68.09	4.5584
68.11	4.5590
68.13	4.5596
68.14	4.5600
68.16	4.5606
68.18	4.5611
68.20	4.5617
68.22	4.5620
68.23	4.5625
68.25	4.5631
68.26	4.5638
68.28	4.5646
68.30	4.5655
68.32	4.5660
68.33	4.5669
68.34	4.5676
68.36	4.5681
68.38	4.5688
68.39	4.5698
68.41	4.5705
68.43	4.5712
68.45	4.5719
68.46	4.5723
68.48	4.5729
68.50	4.5735
68.51	4.5739
68.53	4.5745
68.55	4.5752
68.56	4.5757
68.58	4.5765
68.59	4.5771
68.61	4.5780
68.63	4.5789
68.65	4.5792
68.66	4.5799
68.68	4.5807
68.70	4.5811
68.71	4.5818
68.73	4.5823
68.75	4.5826
68.76	4.5834
68.78	4.5839
68.80	4.5842
68.82	4.5848
68.83	4.5854
68.85	4.5858
68.86	4.5862
68.88	4.5867
68.90	4.5874
68.91	4.5880
68.93	4.5886
68.95	4.5893
68.96	4.5898
68.98	4.5905
69.00	4.5911
69.01	4.5919
69.03	4.5926
69.05	4.5934
69.06	4.5940
69.08	4.5946
69.09	4.5954
69.11	4.5959
69.13	4.5967
69.15	4.5973
69.17	4.5979
69.18	4.5985
69.20	4.5990
69.22	4.5996
69.23	4.6005
69.25	4.6010
69.27	4.6021
69.28	4.6028
69.30	4.6038
69.31	4.6046
69.33	4.6055
69.35	4.6062
69.37	4.6067
69.38	4.6075
69.39	4.6081
69.41	4.6087
69.42	4.6093
69.45	4.6101
69.47	4.6106
69.48	4.6115
69.50	4.6120
69.51	4.6126
69.53	4.6131
69.55	4.6138
69.57	4.6142
69.58	4.6149
69.59	4.6157
69.61	4.6165
69.63	4.6175
69.64	4.6184
69.67	4.6193
69.68	4.6199
69.70	4.6205
69.72	4.6214
69.73	4.6222
69.75	4.6228
69.77	4.6235
69.78	4.6242
69.80	4.6249
69.81	4.6253
69.83	4.6259
69.84	4.6265
69.86	4.6269
69.88	4.6274
69.89	4.6279
69.91	4.6286
69.93	4.6298
69.95	4.6303
69.97	4.6312
69.98	4.6320
70.00	4.6326
70.01	4.6336
70.02	4.6342
70.04	4.6348
70.06	4.6353
70.08	4.6359
70.10	4.6366
70.12	4.6373
70.13	4.6378
70.14	4.6383
70.16	4.6389
70.17	4.6393
70.20	4.6399
70.22	4.6403
70.23	4.6409
70.25	4.6415
70.27	4.6424
70.28	4.6433
70.30	4.6439
70.31	4.6446
70.33	4.6453
70.35	4.6461
70.37	4.6466
70.38	4.6472
70.39	4.6478
70.42	4.6483
70.43	4.6490
70.45	4.6495
70.46	4.6500
70.48	4.6505
70.50	4.6510
70.52	4.6515
70.53	4.6520
70.55	4.6526
70.56	4.6534
70.58	4.6540
70.59	4.6548
70.61	4.6558
70.63	4.6566
70.64	4.6572
70.66	4.6579
70.68	4.6584
70.70	4.6591
70.72	4.6598
70.73	4.6606
70.75	4.6610
70.77	4.6616
70.78	4.6624
70.80	4.6630
70.81	4.6638
70.83	4.6644
70.84	4.6649
70.86	4.6654
70.88	4.6659
70.89	4.6665
70.92	4.6673
70.93	4.6682
70.95	4.6690
70.97	4.6698
70.98	4.6707
71.00	4.6711
71.01	4.6718
71.03	4.6725
71.05	4.6729
71.06	4.6734
71.08	4.6741
71.10	4.6746
71.12	4.6751
71.13	4.6757
71.14	4.6761
71.16	4.6765
71.18	4.6768
71.20	4.6772
71.21	4.6776
71.23	4.6783
71.24	4.6789
71.26	4.6798
71.28	4.6806
71.30	4.6813
71.32	4.6820
71.33	4.6828
71.35	4.6833
71.37	4.6838
71.38	4.6844
71.39	4.6851
71.42	4.6856
71.43	4.6863
71.45	4.6866
71.46	4.6872
71.48	4.6878
71.50	4.6883
71.51	4.6888
71.53	4.6894
71.55	4.6899
71.56	4.6906
71.58	4.6915
71.59	4.6922
71.62	4.6932
71.63	4.6939
71.65	4.6946
71.66	4.6951
71.68	4.6959
71.70	4.6964
71.71	4.6968
71.73	4.6975
71.75	4.6983
71.77	4.6989
71.78	4.6997
71.80	4.7002
71.81	4.7007
71.83	4.7012
71.85	4.7016
71.86	4.7022
71.88	4.7025
71.89	4.7033
71.92	4.7042
71.93	4.7051
71.95	4.7059
71.96	4.7066
71.98	4.7075
72.00	4.7080
72.02	4.7084
72.04	4.7093
72.05	4.7099
72.06	4.7105
72.08	4.7114
72.10	4.7117
72.12	4.7124
72.13	4.7128
72.15	4.7133
72.16	4.7140
72.18	4.7146
72.20	4.7150
72.21	4.7155
72.23	4.7163
72.25	4.7171
72.26	4.7178
72.28	4.7186
72.30	4.7195
72.31	4.7202
72.33	4.7207
72.35	4.7213
72.37	4.7219
72.38	4.7226
72.40	4.7230
72.42	4.7239
72.43	4.7245
72.45	4.7252
72.47	4.7258
72.48	4.7262
72.50	4.7267
72.52	4.7271
72.53	4.7275
72.55	4.7280
72.57	4.7289
72.59	4.7294
72.60	4.7302
72.62	4.7308
72.63	4.7316
72.65	4.7321
72.67	4.7329
72.69	4.7335
72.70	4.7341
72.72	4.7349
72.73	4.7354
72.75	4.7362
72.77	4.7369
72.78	4.7372
72.80	4.7379
72.82	4.7385
72.83	4.7392
72.85	4.7400
72.87	4.7404
72.88	4.7410
72.90	4.7417
72.91	4.7427
72.93	4.7434
72.95	4.7442
72.97	4.7447
72.98	4.7455
73.00	4.7461
73.02	4.7468
73.03	4.7474
73.05	4.7481
73.07	4.7486
73.08	4.7492
73.10	4.7498
73.12	4.7505
73.13	4.7513
73.15	4.7517
73.17	4.7525
73.18	4.7529
73.20	4.7534
73.22	4.7540
73.23	4.7551
73.25	4.7560
73.27	4.7566
73.28	4.7574
73.30	4.7581
73.32	4.7588
73.34	4.7598
73.35	4.7602
73.37	4.7610
73.39	4.7616
73.40	4.7622
73.42	4.7630
73.43	4.7635
73.45	4.7640
73.47	4.7646
73.49	4.7650
73.50	4.7656
73.52	4.7660
73.54	4.7667
73.55	4.7675
73.57	4.7682
73.58	4.7689
73.60	4.7696
73.62	4.7704
73.63	4.7709
73.65	4.7716
73.67	4.7722
73.69	4.7729
73.70	4.7736
73.72	4.7741
73.74	4.7747
73.75	4.7753
73.77	4.7760
73.79	4.7768
73.80	4.7772
73.82	4.7778
73.83	4.7783
73.85	4.7789
73.87	4.7796
73.88	4.7802
73.90	4.7812
73.92	4.7819
73.94	4.7827
73.95	4.7835
73.97	4.7842
73.98	4.7849
74.00	4.7855
74.02	4.7862
74.03	4.7868
74.05	4.7877
74.08	4.7885
74.09	4.7891
74.10	4.7899
74.12	4.7904
74.13	4.7911
74.15	4.7916
74.17	4.7921
74.19	4.7926
74.20	4.7932
74.22	4.7939
74.24	4.7948
74.25	4.7957
74.27	4.7966
74.29	4.7974
74.30	4.7980
74.32	4.7986
74.34	4.7990
74.36	4.7995
74.37	4.8002
74.38	4.8007
74.40	4.8014
74.42	4.8020
74.44	4.8025
74.45	4.8033
74.47	4.8037
74.49	4.8040
74.50	4.8046
74.53	4.8052
74.54	4.8057
74.55	4.8066
74.57	4.8072
74.59	4.8078
74.61	4.8082
74.62	4.8092
74.64	4.8098
74.66	4.8104
74.67	4.8110
74.69	4.8115
74.70	4.8121
74.72	4.8131
74.74	4.8140
74.76	4.8145
74.77	4.8150
74.79	4.8155
74.80	4.8161
74.83	4.8168
74.84	4.8174
74.86	4.8179
74.87	4.8187
74.89	4.8195
74.90	4.8205
74.92	4.8211
74.94	4.8218
74.95	4.8225
74.97	4.8231
74.99	4.8236
75.00	4.8244
75.02	4.8251
75.04	4.8257
75.05	4.8263
75.07	4.8267
75.09	4.8273
75.10	4.8279
75.12	4.8284
75.14	4.8289
75.15	4.8294
75.17	4.8302
75.19	4.8308
75.20	4.8316
75.23	4.8321
75.24	4.8329
75.26	4.8337
75.28	4.8345
75.29	4.8351
75.30	4.8360
75.32	4.8366
75.33	4.8372
75.35	4.8377
75.37	4.8384
75.39	4.8389
75.41	4.8396
75.42	4.8401
75.44	4.8407
75.45	4.8413
75.47	4.8421
75.49	4.8424
75.50	4.8430
75.52	4.8439
75.54	4.8446
75.55	4.8455
75.57	4.8464
75.59	4.8470
75.60	4.8478
75.62	4.8487
75.64	4.8491
75.65	4.8500
75.67	4.8506
75.69	4.8512
75.70	4.8519
75.72	4.8527
75.74	4.8533
75.75	4.8541
75.77	4.8545
75.79	4.8551
75.80	4.8554
75.82	4.8561
75.84	4.8568
75.86	4.8577
75.87	4.8583
75.89	4.8593
75.90	4.8602
75.92	4.8608
75.93	4.8617
75.95	4.8623
75.97	4.8628
75.99	4.8632
76.00	4.8640
76.02	4.8644
76.04	4.8649
76.05	4.8653
76.07	4.8661
76.09	4.8667
76.11	4.8671
76.13	4.8677
76.14	4.8681
76.16	4.8690
76.17	4.8694
76.19	4.8700
76.20	4.8706
76.22	4.8712
76.24	4.8720
76.25	4.8727
76.28	4.8730
76.29	4.8736
76.31	4.8741
76.32	4.8747
76.34	4.8753
76.35	4.8758
76.37	4.8765
76.39	4.8771
76.40	4.8777
76.42	4.8784
76.44	4.8791
76.45	4.8797
76.47	4.8804
76.49	4.8810
76.50	4.8816
76.53	4.8825
76.54	4.8833
76.56	4.8840
76.57	4.8847
76.59	4.8852
76.61	4.8861
76.62	4.8868
76.64	4.8874
76.66	4.8881
76.67	4.8887
76.69	4.8894
76.70	4.8898
76.72	4.8904
76.73	4.8910
76.75	4.8915
76.78	4.8920
76.79	4.8926
76.80	4.8933
76.82	4.8939
76.83	4.8947
76.85	4.8956
76.87	4.8966
76.89	4.8972
76.91	4.8980
76.92	4.8987
76.94	4.8994
76.96	4.9004
76.98	4.9010
76.99	4.9016
77.01	4.9024
77.03	4.9029
77.04	4.9035
77.06	4.9039
77.08	4.9043
77.09	4.9049
77.11	4.9057
77.13	4.9061
77.14	4.9067
77.16	4.9072
77.17	4.9081
77.19	4.9088
77.21	4.9094
77.23	4.9102
77.24	4.9109
77.26	4.9117
77.28	4.9122
77.29	4.9129
77.31	4.9135
77.33	4.9141
77.34	4.9146
77.36	4.9151
77.38	4.9158
77.39	4.9160
77.41	4.9165
77.42	4.9170
77.44	4.9175
77.46	4.9182
77.47	4.9185
77.49	4.9192
77.51	4.9197
77.53	4.9205
77.54	4.9211
77.56	4.9221
77.57	4.9230
77.59	4.9236
77.61	4.9243
77.62	4.9248
77.64	4.9256
77.66	4.9265
77.67	4.9269
77.69	4.9270
77.70	4.9276
77.72	4.9284
77.74	4.9290
77.75	4.9297
77.77	4.9302
77.79	4.9308
77.81	4.9314
77.83	4.9321
77.84	4.9328
77.85	4.9337
77.88	4.9346
77.89	4.9352
77.91	4.9358
77.92	4.9369
77.94	4.9376
77.95	4.9385
77.98	4.9391
77.99	4.9397
78.01	4.9403
78.03	4.9408
78.04	4.9413
78.06	4.9422
78.08	4.9429
78.09	4.9434
78.10	4.9441
78.13	4.9452
78.14	4.9456
78.16	4.9465
78.17	4.9473
78.19	4.9482
78.20	4.9489
78.23	4.9497
78.24	4.9504
78.25	4.9510
78.28	4.9520
78.29	4.9527
78.31	4.9532
78.33	4.9540
78.34	4.9545
78.36	4.9553
78.38	4.9559
78.39	4.9566
78.40	4.9573
78.42	4.9580
78.44	4.9586
78.46	4.9593
78.48	4.9600
78.49	4.9608
78.50	4.9617
78.53	4.9623
78.54	4.9633
78.56	4.9642
78.57	4.9648
78.59	4.9656
78.60	4.9666
78.63	4.9672
78.64	4.9677
78.65	4.9684
78.67	4.9691
78.69	4.9699
78.70	4.9707
78.72	4.9713
78.74	4.9720
78.76	4.9723
78.78	4.9731
78.79	4.9736
78.81	4.9742
78.83	4.9747
78.84	4.9756
78.86	4.9764
78.88	4.9771
78.89	4.9780
78.91	4.9788
78.92	4.9796
78.95	4.9804
78.96	4.9809
78.98	4.9813
79.00	4.9820
79.01	4.9829
79.03	4.9832
79.05	4.9838
79.06	4.9844
79.08	4.9847
79.09	4.9852
79.11	4.9861
79.13	4.9866
79.14	4.9874
79.16	4.9882
79.17	4.9891
79.19	4.9898
79.21	4.9904
79.23	4.9912
79.24	4.9920
79.25	4.9928
79.27	4.9933
79.29	4.9940
79.31	4.9945
79.33	4.9951
79.34	4.9955
79.36	4.9961
79.38	4.9966
79.39	4.9972
79.41	4.9979
79.42	4.9986
79.44	4.9990
79.46	4.9996
79.48	5.0002
79.49	5.0010
79.51	5.0014
79.53	5.0022
79.54	5.0032
79.56	5.0038
79.57	5.0044
79.59	5.0050
79.61	5.0055
79.63	5.0061
79.64	5.0067
79.66	5.0074
79.67	5.0077
79.70	5.0083
79.71	5.0088
79.73	5.0090
79.74	5.0096
79.76	5.0102
79.78	5.0108
79.80	5.0116
79.81	5.0124
79.83	5.0133
79.84	5.0138
79.86	5.0146
79.88	5.0152
79.89	5.0160
79.91	5.0166
79.93	5.0175
79.94	5.0181
79.96	5.0186
79.98	5.0194
79.99	5.0198
80.01	5.0204
80.03	5.0211
80.04	5.0218
80.06	5.0223
80.08	5.0230
80.09	5.0236
80.11	5.0246
80.13	5.0254
80.14	5.0261
80.16	5.0270
80.18	5.0279
80.20	5.0284
80.21	5.0294
80.23	5.0301
80.25	5.0308
80.26	5.0317
80.28	5.0324
80.30	5.0333
80.31	5.0337
80.33	5.0342
80.34	5.0349
80.36	5.0355
80.38	5.0362
80.39	5.0368
80.41	5.0372
80.42	5.0378
80.44	5.0387
80.46	5.0396
80.48	5.0403
80.50	5.0411
80.51	5.0419
80.53	5.0425
80.55	5.0433
80.56	5.0441
80.57	5.0444
80.59	5.0453
80.61	5.0460
80.62	5.0467
80.64	5.0475
80.66	5.0482
80.67	5.0489
80.69	5.0494
80.70	5.0501
80.72	5.0508
80.74	5.0514
80.76	5.0524
80.78	5.0532
80.80	5.0540
80.81	5.0547
80.83	5.0555
80.84	5.0563
80.86	5.0570
80.88	5.0577
80.89	5.0582
80.91	5.0588
80.93	5.0597
80.95	5.0606
80.96	5.0614
80.98	5.0622
80.99	5.0631
81.00	5.0641
81.03	5.0649
81.05	5.0657
81.06	5.0666
81.08	5.0674
81.09	5.0682
81.11	5.0689
81.13	5.0697
81.14	5.0703
81.16	5.0711
81.17	5.0721
81.19	5.0728
81.21	5.0738
81.23	5.0747
81.24	5.0756
81.26	5.0765
81.27	5.0773
81.28	5.0782
81.30	5.0790
81.33	5.0796
81.34	5.0804
81.36	5.0808
81.38	5.0814
81.39	5.0822
81.41	5.0829
81.43	5.0836
81.44	5.0846
81.46	5.0855
81.47	5.0863
81.49	5.0871
81.51	5.0881
81.52	5.0889
81.54	5.0897
81.55	5.0905
81.58	5.0915
81.59	5.0922
81.61	5.0926
81.63	5.0935
81.64	5.0943
81.66	5.0948
81.67	5.0953
81.69	5.0961
81.70	5.0970
81.72	5.0980
81.74	5.0989
81.76	5.0996
81.77	5.1005
81.79	5.1012
81.81	5.1017
81.82	5.1025
81.84	5.1033
81.86	5.1039
81.88	5.1044
81.89	5.1050
81.91	5.1056
81.92	5.1062
81.94	5.1071
81.96	5.1077
81.98	5.1084
81.99	5.1093
82.01	5.1100
82.03	5.1106
82.04	5.1114
82.05	5.1121
82.07	5.1126
82.09	5.1133
82.11	5.1138
82.13	5.1145
82.14	5.1148
82.15	5.1156
82.17	5.1158
82.19	5.1167
82.21	5.1172
82.23	5.1177
82.24	5.1186
82.25	5.1193
82.28	5.1200
82.30	5.1205
82.31	5.1212
82.33	5.1216
82.34	5.1222
82.36	5.1225
82.37	5.1230
82.39	5.1235
82.40	5.1240
82.42	5.1244
82.44	5.1248
82.45	5.1255
82.47	5.1264
82.49	5.1269
82.51	5.1274
82.53	5.1280
82.54	5.1288
82.56	5.1296
82.58	5.1300
82.59	5.1307
82.61	5.1313
82.63	5.1319
82.64	5.1322
82.66	5.1326
82.67	5.1331
82.69	5.1334
82.70	5.1340
82.72	5.1347
82.74	5.1353
82.76	5.1360
82.78	5.1368
82.79	5.1374
82.81	5.1382
82.82	5.1387
82.84	5.1392
82.85	5.1399
82.88	5.1403
82.89	5.1409
82.90	5.1416
82.92	5.1420
82.94	5.1425
82.95	5.1432
82.97	5.1438
82.99	5.1444
83.00	5.1451
83.02	5.1455
83.04	5.1464
83.05	5.1471
83.07	5.1477
83.09	5.1484
83.11	5.1489
83.13	5.1494
83.14	5.1500
83.15	5.1507
83.17	5.1514
83.19	5.1520
83.21	5.1526
83.22	5.1532
83.24	5.1541
83.26	5.1549
83.28	5.1554
83.29	5.1560
83.30	5.1569
83.33	5.1576
83.34	5.1581
83.35	5.1589
83.38	5.1595
83.39	5.1600
83.40	5.1606
83.42	5.1612
83.44	5.1619
83.45	5.1623
83.47	5.1629
83.48	5.1637
83.50	5.1647
83.52	5.1652
83.54	5.1661
83.56	5.1666
83.57	5.1674
83.59	5.1683
83.60	5.1690
83.62	5.1694
83.64	5.1700
83.65	5.1706
83.67	5.1709
83.69	5.1714
83.70	5.1721
83.72	5.1725
83.74	5.1730
83.75	5.1738
83.77	5.1745
83.79	5.1752
83.80	5.1758
83.82	5.1764
83.84	5.1773
83.85	5.1779
83.87	5.1784
83.89	5.1788
83.90	5.1795
83.92	5.1800
83.94	5.1804
83.95	5.1811
83.98	5.1817
83.99	5.1823
84.00	5.1831
84.02	5.1838
84.04	5.1844
84.05	5.1852
84.07	5.1858
84.08	5.1866
84.10	5.1871
84.12	5.1879
84.14	5.1887
84.15	5.1892
84.17	5.1895
84.19	5.1899
84.21	5.1904
84.22	5.1909
84.24	5.1916
84.25	5.1922
84.27	5.1930
84.29	5.1937
84.30	5.1945
84.32	5.1952
84.34	5.1962
84.35	5.1968
84.37	5.1976
84.39	5.1982
84.40	5.1991
84.42	5.1995
84.43	5.2004
84.45	5.2009
84.47	5.2018
84.49	5.2024
84.50	5.2030
84.52	5.2039
84.53	5.2045
84.55	5.2052
84.57	5.2062
84.59	5.2069
84.60	5.2074
84.62	5.2082
84.64	5.2092
84.65	5.2100
84.67	5.2105
84.69	5.2111
84.70	5.2118
84.72	5.2126
84.74	5.2132
84.75	5.2139
84.77	5.2146
84.79	5.2154
84.80	5.2162
84.82	5.2169
84.83	5.2177
84.85	5.2185
84.87	5.2190
84.89	5.2199
84.90	5.2205
84.92	5.2216
84.94	5.2222
84.96	5.2227
84.98	5.2236
84.99	5.2241
85.00	5.2248
85.03	5.2257
85.04	5.2268
85.05	5.2274
85.07	5.2282
85.09	5.2292
85.10	5.2297
85.12	5.2304
85.13	5.2311
85.15	5.2316
85.17	5.2325
85.19	5.2332
85.20	5.2338
85.22	5.2344
85.23	5.2351
85.25	5.2355
85.27	5.2364
85.28	5.2374
85.30	5.2382
85.32	5.2390
85.34	5.2399
85.35	5.2406
85.37	5.2414
85.38	5.2421
85.40	5.2430
85.42	5.2437
85.43	5.2444
85.45	5.2451
85.47	5.2458
85.49	5.2465
85.50	5.2472
85.52	5.2480
85.54	5.2488
85.55	5.2496
85.57	5.2503
85.59	5.2509
85.60	5.2516
85.62	5.2523
85.63	5.2531
85.65	5.2537
85.67	5.2544
85.69	5.2549
85.70	5.2555
85.72	5.2562
85.73	5.2568
85.75	5.2573
85.77	5.2579
85.78	5.2589
85.80	5.2597
85.82	5.2605
85.83	5.2612
85.85	5.2619
85.87	5.2627
85.88	5.2637
85.90	5.2641
85.92	5.2646
85.94	5.2656
85.95	5.2662
85.97	5.2670
85.98	5.2676
86.00	5.2682
86.02	5.2688
86.03	5.2695
86.05	5.2704
86.07	5.2711
86.08	5.2719
86.10	5.2726
86.12	5.2735
86.13	5.2742
86.15	5.2746
86.17	5.2751
86.18	5.2760
86.20	5.2767
86.22	5.2773
86.24	5.2781
86.25	5.2785
86.27	5.2794
86.28	5.2799
86.30	5.2805
86.32	5.2813
86.33	5.2822
86.34	5.2828
86.37	5.2835
86.38	5.2845
86.40	5.2850
86.42	5.2855
86.43	5.2859
86.45	5.2865
86.47	5.2873
86.48	5.2880
86.50	5.2885
86.52	5.2890
86.53	5.2898
86.55	5.2906
86.57	5.2914
86.58	5.2923
86.60	5.2932
86.62	5.2940
86.63	5.2946
86.65	5.2954
86.67	5.2961
86.68	5.2966
86.70	5.2973
86.71	5.2978
86.73	5.2983
86.75	5.2992
86.77	5.2999
86.78	5.3008
86.80	5.3013
86.82	5.3020
86.83	5.3028
86.85	5.3038
86.87	5.3049
86.88	5.3058
86.90	5.3063
86.92	5.3072
86.93	5.3081
86.95	5.3083
86.97	5.3091
86.98	5.3098
87.00	5.3103
87.02	5.3110
87.03	5.3118
87.05	5.3127
87.07	5.3134
87.08	5.3144
87.10	5.3154
87.11	5.3163
87.13	5.3172
87.15	5.3178
87.17	5.3187
87.18	5.3194
87.20	5.3201
87.21	5.3209
87.23	5.3216
87.25	5.3222
87.26	5.3228
87.28	5.3236
87.30	5.3243
87.31	5.3253
87.33	5.3260
87.35	5.3271
87.36	5.3281
87.38	5.3291
87.39	5.3298
87.41	5.3305
87.43	5.3314
87.45	5.3322
87.46	5.3327
87.48	5.3336
87.50	5.3342
87.51	5.3349
87.53	5.3356
87.55	5.3363
87.56	5.3371
87.58	5.3377
87.59	5.3386
87.61	5.3394
87.63	5.3402
87.65	5.3407
87.67	5.3416
87.68	5.3421
87.70	5.3428
87.71	5.3433
87.73	5.3440
87.75	5.3446
87.76	5.3452
87.78	5.3456
87.80	5.3461
87.81	5.3467
87.83	5.3474
87.84	5.3481
87.86	5.3490
87.88	5.3498
87.89	5.3506
87.91	5.3515
87.93	5.3524
87.95	5.3532
87.96	5.3539
87.98	5.3546
88.00	5.3554
88.01	5.3560
88.03	5.3566
88.05	5.3574
88.06	5.3582
88.08	5.3592
88.10	5.3599
88.11	5.3609
88.13	5.3619
88.14	5.3626
88.16	5.3635
88.18	5.3647
88.20	5.3655
88.21	5.3662
88.23	5.3671
88.24	5.3678
88.26	5.3686
88.28	5.3693
88.29	5.3700
88.31	5.3705
88.33	5.3714
88.34	5.3723
88.36	5.3728
88.38	5.3737
88.39	5.3744
88.41	5.3752
88.42	5.3758
88.44	5.3766
88.46	5.3773
88.48	5.3782
88.49	5.3788
88.51	5.3793
88.53	5.3797
88.54	5.3805
88.56	5.3809
88.58	5.3815
88.59	5.3822
88.61	5.3831
88.63	5.3838
88.64	5.3846
88.66	5.3854
88.67	5.3863
88.69	5.3868
88.71	5.3875
88.73	5.3881
88.75	5.3885
88.76	5.3891
88.78	5.3898
88.80	5.3903
88.81	5.3911
88.83	5.3917
88.84	5.3922
88.86	5.3931
88.88	5.3937
88.89	5.3945
88.91	5.3951
88.92	5.3958
88.94	5.3967
88.96	5.3970
88.98	5.3976
89.00	5.3983
89.01	5.3991
89.03	5.3995
89.05	5.4003
89.06	5.4008
89.08	5.4016
89.09	5.4022
89.11	5.4030
89.13	5.4038
89.14	5.4048
89.16	5.4055
89.18	5.4064
89.19	5.4070
89.21	5.4078
89.23	5.4083
89.24	5.4091
89.26	5.4099
89.27	5.4106
89.29	5.4113
89.31	5.4119
89.32	5.4126
89.34	5.4134
89.35	5.4142
89.38	5.4148
89.39	5.4157
89.41	5.4164
89.42	5.4172
89.44	5.4180
89.45	5.4188
89.47	5.4194
89.49	5.4204
89.50	5.4212
89.52	5.4221
89.54	5.4225
89.56	5.4233
89.57	5.4238
89.59	5.4246
89.60	5.4256
89.63	5.4265
89.64	5.4271
89.66	5.4280
89.67	5.4288
89.69	5.4297
89.71	5.4307
89.73	5.4314
89.74	5.4320
89.76	5.4329
89.78	5.4339
89.79	5.4345
89.81	5.4351
89.83	5.4358
89.84	5.4365
89.86	5.4372
89.88	5.4382
89.89	5.4390
89.90	5.4396
89.92	5.4404
89.94	5.4412
89.95	5.4417
89.97	5.4426
89.99	5.4431
90.00	5.4438
90.02	5.4447
90.04	5.4451
90.05	5.4457
90.07	5.4463
90.08	5.4470
90.10	5.4476
90.12	5.4483
90.14	5.4492
90.15	5.4499
90.17	5.4507
90.19	5.4512
90.20	5.4521
90.22	5.4528
90.23	5.4533
90.25	5.4541
90.27	5.4545
90.28	5.4552
90.30	5.4558
90.32	5.4564
90.34	5.4569
90.35	5.4576
90.37	5.4582
90.39	5.4592
90.41	5.4600
90.42	5.4608
90.44	5.4615
90.45	5.4623
90.47	5.4629
90.49	5.4638
90.50	5.4644
90.52	5.4649
90.54	5.4658
90.55	5.4665
90.58	5.4673
90.58	5.4679
90.60	5.4689
90.63	5.4693
90.64	5.4701
90.66	5.4710
90.67	5.4718
90.69	5.4726
90.70	5.4733
90.72	5.4740
90.74	5.4749
90.75	5.4756
90.78	5.4761
90.79	5.4769
90.80	5.4777
90.82	5.4784
90.84	5.4791
90.85	5.4799
90.87	5.4807
90.89	5.4815
90.90	5.4825
90.92	5.4833
90.93	5.4842
90.95	5.4850
90.97	5.4855
90.99	5.4862
91.00	5.4870
91.02	5.4878
91.04	5.4886
91.05	5.4893
91.07	5.4900
91.09	5.4905
91.10	5.4914
91.12	5.4922
91.14	5.4931
91.15	5.4940
91.17	5.4951
91.19	5.4961
91.20	5.4968
91.22	5.4979
91.23	5.4984
91.25	5.4992
91.27	5.4999
91.29	5.5005
91.31	5.5013
91.32	5.5019
91.34	5.5026
91.35	5.5032
91.37	5.5038
91.39	5.5048
91.41	5.5056
91.42	5.5066
91.43	5.5074
91.45	5.5084
91.47	5.5089
91.49	5.5097
91.50	5.5102
91.51	5.5111
91.53	5.5120
91.55	5.5129
91.57	5.5134
91.58	5.5143
91.60	5.5148
91.62	5.5155
91.64	5.5165
91.65	5.5174
91.67	5.5181
91.68	5.5190
91.70	5.5198
91.72	5.5209
91.74	5.5215
91.75	5.5223
91.77	5.5230
91.79	5.5239
91.80	5.5245
91.82	5.5251
91.83	5.5255
91.85	5.5263
91.87	5.5269
91.89	5.5276
91.90	5.5282
91.92	5.5290
91.94	5.5298
91.95	5.5309
91.95	5.5316
91.98	5.5324
92.00	5.5333
92.02	5.5341
92.04	5.5348
92.05	5.5357
92.07	5.5365
92.09	5.5373
92.10	5.5379
92.12	5.5386
92.13	5.5393
92.15	5.5401
92.17	5.5411
92.19	5.5419
92.20	5.5428
92.22	5.5434
92.23	5.5443
92.25	5.5451
92.27	5.5461
92.29	5.5467
92.30	5.5475
92.32	5.5481
92.34	5.5489
92.35	5.5496
92.37	5.5504
92.39	5.5510
92.41	5.5520
92.42	5.5527
92.44	5.5535
92.45	5.5544
92.47	5.5552
92.48	5.5561
92.50	5.5570
92.52	5.5578
92.54	5.5584
92.55	5.5592
92.57	5.5600
92.59	5.5608
92.60	5.5615
92.62	5.5623
92.64	5.5632
92.65	5.5642
92.67	5.5649
92.68	5.5658
92.70	5.5666
92.72	5.5674
92.73	5.5682
92.75	5.5691
92.77	5.5698
92.78	5.5705
92.80	5.5713
92.82	5.5720
92.83	5.5727
92.85	5.5734
92.87	5.5744
92.88	5.5750
92.89	5.5761
92.91	5.5766
92.93	5.5774
92.95	5.5784
92.97	5.5789
92.98	5.5799
93.00	5.5806
93.02	5.5812
93.04	5.5821
93.05	5.5828
93.07	5.5836
93.08	5.5841
93.10	5.5846
93.12	5.5854
93.13	5.5863
93.15	5.5871
93.17	5.5879
93.18	5.5885
93.20	5.5894
93.22	5.5903
93.23	5.5909
93.25	5.5917
93.27	5.5923
93.28	5.5929
93.30	5.5937
93.32	5.5943
93.33	5.5950
93.34	5.5956
93.37	5.5966
93.38	5.5970
93.40	5.5976
93.42	5.5983
93.43	5.5990
93.45	5.6001
93.47	5.6009
93.48	5.6018
93.50	5.6027
93.51	5.6035
93.53	5.6045
93.55	5.6055
93.57	5.6065
93.58	5.6071
93.60	5.6079
93.62	5.6086
93.63	5.6096
93.64	5.6103
93.67	5.6109
93.68	5.6119
93.70	5.6129
93.72	5.6135
93.74	5.6142
93.75	5.6150
93.77	5.6159
93.78	5.6168
93.80	5.6177
93.81	5.6182
93.83	5.6191
93.85	5.6198
93.87	5.6203
93.88	5.6211
93.90	5.6217
93.92	5.6224
93.93	5.6235
93.95	5.6240
93.97	5.6250
93.98	5.6259
94.00	5.6267
94.02	5.6274
94.04	5.6280
94.05	5.6285
94.07	5.6294
94.08	5.6299
94.10	5.6307
94.12	5.6314
94.13	5.6320
94.15	5.6325
94.17	5.6333
94.18	5.6343
94.20	5.6348
94.21	5.6355
94.23	5.6364
94.25	5.6373
94.27	5.6382
94.29	5.6386
94.30	5.6390
94.32	5.6398
94.33	5.6408
94.35	5.6414
94.36	5.6419
94.38	5.6424
94.40	5.6430
94.42	5.6435
94.43	5.6441
94.45	5.6450
94.47	5.6458
94.48	5.6468
94.50	5.6475
94.52	5.6483
94.53	5.6490
94.55	5.6499
94.57	5.6506
94.58	5.6513
94.60	5.6525
94.62	5.6531
94.63	5.6537
94.65	5.6543
94.67	5.6550
94.69	5.6563
94.70	5.6570
94.72	5.6578
94.73	5.6588
94.75	5.6594
94.76	5.6602
94.78	5.6612
94.80	5.6616
94.82	5.6627
94.83	5.6634
94.85	5.6641
94.87	5.6652
94.88	5.6659
94.90	5.6667
94.92	5.6675
94.93	5.6684
94.95	5.6692
94.97	5.6702
94.99	5.6712
95.00	5.6718
95.02	5.6728
95.03	5.6740
95.05	5.6747
95.07	5.6757
95.09	5.6761
95.10	5.6770
95.12	5.6779
95.13	5.6787
95.14	5.6792
95.17	5.6801
95.18	5.6809
95.19	5.6814
95.21	5.6823
95.23	5.6833
95.25	5.6837
95.27	5.6847
95.28	5.6855
95.30	5.6861
95.32	5.6867
95.33	5.6879
95.35	5.6887
95.37	5.6895
95.38	5.6902
95.39	5.6905
95.42	5.6915
95.44	5.6925
95.45	5.6929
95.47	5.6938
95.48	5.6948
95.50	5.6955
95.52	5.6963
95.53	5.6972
95.55	5.6979
95.57	5.6986
95.58	5.6990
95.59	5.6997
95.61	5.7002
95.63	5.7013
95.65	5.7020
95.67	5.7027
95.68	5.7032
95.70	5.7039
95.71	5.7047
95.73	5.7051
95.75	5.7060
95.76	5.7071
95.78	5.7076
95.80	5.7085
95.81	5.7093
95.83	5.7102
95.84	5.7108
95.86	5.7116
95.88	5.7125
95.90	5.7132
95.92	5.7140
95.93	5.7146
95.95	5.7155
95.96	5.7164
95.98	5.7173
96.00	5.7183
96.01	5.7193
96.03	5.7202
96.05	5.7210
96.06	5.7216
96.08	5.7221
96.09	5.7226
96.11	5.7237
96.13	5.7245
96.14	5.7253
96.17	5.7260
96.18	5.7267
96.20	5.7274
96.21	5.7284
96.23	5.7292
96.24	5.7300
96.26	5.7309
96.28	5.7317
96.30	5.7323
96.31	5.7329
96.33	5.7338
96.34	5.7345
96.36	5.7350
96.38	5.7358
96.40	5.7364
96.42	5.7369
96.43	5.7376
96.45	5.7382
96.47	5.7391
96.48	5.7401
96.50	5.7407
96.52	5.7416
96.53	5.7425
96.55	5.7432
96.57	5.7437
96.58	5.7444
96.59	5.7448
96.62	5.7453
96.63	5.7460
96.65	5.7465
96.67	5.7473
96.68	5.7477
96.70	5.7483
96.72	5.7493
96.73	5.7501
96.75	5.7509
96.77	5.7514
96.79	5.7522
96.80	5.7530
96.82	5.7539
96.83	5.7544
96.84	5.7550
96.86	5.7558
96.88	5.7563
96.89	5.7569
96.91	5.7576
96.92	5.7582
96.95	5.7587
96.96	5.7596
96.98	5.7608
97.00	5.7613
97.01	5.7623
97.03	5.7632
97.05	5.7640
97.07	5.7648
97.08	5.7659
97.10	5.7665
97.12	5.7675
97.13	5.7685
97.14	5.7692
97.16	5.7698
97.18	5.7709
97.20	5.7717
97.21	5.7727
97.23	5.7737
97.25	5.7744
97.27	5.7754
97.28	5.7765
97.30	5.7774
97.31	5.7784
97.33	5.7793
97.35	5.7803
97.37	5.7809
97.38	5.7819
97.40	5.7826
97.41	5.7834
97.43	5.7844
97.45	5.7853
97.47	5.7862
97.48	5.7869
97.50	5.7880
97.52	5.7887
97.53	5.7897
97.55	5.7907
97.57	5.7918
97.58	5.7927
97.60	5.7935
97.62	5.7945
97.63	5.7955
97.64	5.7962
97.66	5.7970
97.68	5.7979
97.70	5.7985
97.71	5.7993
97.73	5.8002
97.75	5.8011
97.77	5.8020
97.78	5.8030
97.80	5.8039
97.81	5.8047
97.83	5.8057
97.84	5.8066
97.86	5.8075
97.88	5.8085
97.89	5.8090
97.91	5.8095
97.93	5.8103
97.95	5.8112
97.96	5.8121
97.98	5.8131
98.00	5.8140
98.02	5.8149
98.03	5.8161
98.05	5.8171
98.07	5.8177
98.08	5.8188
98.10	5.8197
98.12	5.8207
98.13	5.8214
98.14	5.8219
98.16	5.8226
98.18	5.8235
98.20	5.8243
98.21	5.8251
98.23	5.8262
98.25	5.8269
98.26	5.8282
98.28	5.8291
98.30	5.8299
98.31	5.8308
98.33	5.8318
98.34	5.8329
98.36	5.8337
98.38	5.8346
98.39	5.8355
98.42	5.8362
98.43	5.8371
98.45	5.8378
98.47	5.8387
98.48	5.8396
98.50	5.8405
98.51	5.8415
98.53	5.8425
98.55	5.8433
98.57	5.8442
98.58	5.8451
98.60	5.8461
98.62	5.8468
98.63	5.8479
98.64	5.8483
98.66	5.8492
98.68	5.8501
98.70	5.8507
98.72	5.8513
98.73	5.8524
98.75	5.8533
98.76	5.8541
98.78	5.8550
98.80	5.8557
98.81	5.8564
98.83	5.8573
98.84	5.8580
98.86	5.8587
98.88	5.8594
98.89	5.8601
98.92	5.8608
98.93	5.8615
98.94	5.8621
98.96	5.8628
98.98	5.8638
99.00	5.8645
99.01	5.8654
99.03	5.8663
99.05	5.8672
99.06	5.8680
99.08	5.8689
99.09	5.8696
99.11	5.8702
99.13	5.8708
99.14	5.8715
99.16	5.8722
99.18	5.8730
99.20	5.8736
99.21	5.8743
99.23	5.8750
99.25	5.8758
99.26	5.8768
99.28	5.8775
99.30	5.8784
99.31	5.8794
99.33	5.8802
99.34	5.8810
99.36	5.8819
99.38	5.8826
99.39	5.8834
99.41	5.8840
99.43	5.8848
99.45	5.8855
99.46	5.8862
99.48	5.8869
99.49	5.8878
99.51	5.8887
99.53	5.8897
99.54	5.8904
99.56	5.8913
99.58	5.8919
99.59	5.8928
99.61	5.8937
99.63	5.8942
99.64	5.8951
99.66	5.8960
99.68	5.8967
99.69	5.8974
99.71	5.8979
99.73	5.8985
99.75	5.8994
99.76	5.9003
99.78	5.9012
99.80	5.9019
99.81	5.9029
99.83	5.9036
99.84	5.9045
99.86	5.9055
99.88	5.9061
99.89	5.9070
99.91	5.9080
99.93	5.9086
99.95	5.9095
99.96	5.9101
99.98	5.9109
100.00	5.9116
100.01	5.9124
100.03	5.9132
100.05	5.9143
100.06	5.9152
100.08	5.9159
100.10	5.9169
100.11	5.9179
100.13	5.9186
100.15	5.9193
100.16	5.9202
100.18	5.9208
100.20	5.9215
100.21	5.9221
100.23	5.9228
100.25	5.9235
100.27	5.9244
100.28	5.9252
100.30	5.9261
100.31	5.9272
100.33	5.9277
100.35	5.9287
100.37	5.9297
100.38	5.9304
100.40	5.9311
100.41	5.9317
100.43	5.9324
100.45	5.9333
100.47	5.9341
100.48	5.9347
100.49	5.9356
100.51	5.9364
100.53	5.9374
100.55	5.9385
100.57	5.9396
100.58	5.9403
100.60	5.9413
100.62	5.9423
100.63	5.9430
100.65	5.9440
100.66	5.9447
100.68	5.9455
100.70	5.9462
100.71	5.9470
100.73	5.9474
100.74	5.9486
100.76	5.9493
100.78	5.9501
100.80	5.9510
100.81	5.9517
100.83	5.9526
100.85	5.9535
100.86	5.9544
100.88	5.9552
100.90	5.9561
100.91	5.9569
100.93	5.9577
100.95	5.9584
100.96	5.9591
100.98	5.9595
101.00	5.9604
101.01	5.9614
101.03	5.9623
101.05	5.9634
101.06	5.9641
101.08	5.9650
101.10	5.9658
101.11	5.9667
101.13	5.9673
101.14	5.9682
101.16	5.9690
101.18	5.9700
101.20	5.9708
101.21	5.9716
101.23	5.9725
101.24	5.9731
101.26	5.9740
101.28	5.9750
101.30	5.9759
101.31	5.9768
101.33	5.9775
101.35	5.9785
101.36	5.9793
101.38	5.9800
101.40	5.9810
101.41	5.9822
101.43	5.9828
101.45	5.9836
101.47	5.9843
101.48	5.9850
101.50	5.9860
101.51	5.9868
101.53	5.9879
101.55	5.9888
101.57	5.9898
101.58	5.9906
101.60	5.9918
101.61	5.9926
101.63	5.9930
101.65	5.9936
101.66	5.9946
101.68	5.9957
101.70	5.9965
101.71	5.9973
101.73	5.9980
101.74	5.9986
101.76	5.9996
101.78	6.0005
101.80	6.0014
101.81	6.0020
101.83	6.0030
101.84	6.0039
101.86	6.0048
101.88	6.0055
101.89	6.0065
101.91	6.0074
101.93	6.0082
101.95	6.0090
101.97	6.0101
101.98	6.0106
102.00	6.0114
102.01	6.0123
102.03	6.0132
102.05	6.0139
102.06	6.0150
102.08	6.0158
102.10	6.0169
102.11	6.0176
102.13	6.0182
102.15	6.0192
102.16	6.0198
102.18	6.0205
102.19	6.0218
102.21	6.0226
102.23	6.0233
102.24	6.0241
102.26	6.0250
102.28	6.0256
102.30	6.0267
102.31	6.0274
102.33	6.0281
102.35	6.0294
102.36	6.0304
102.38	6.0311
102.40	6.0320
102.41	6.0330
102.43	6.0338
102.44	6.0344
102.46	6.0350
102.48	6.0358
102.49	6.0366
102.51	6.0377
102.53	6.0384
102.55	6.0395
102.56	6.0403
102.58	6.0412
102.60	6.0418
102.62	6.0428
102.63	6.0433
102.65	6.0441
102.66	6.0452
102.68	6.0459
102.70	6.0465
102.71	6.0472
102.73	6.0477
102.74	6.0485
102.76	6.0493
102.78	6.0503
102.80	6.0513
102.81	6.0522
102.83	6.0527
102.85	6.0537
102.86	6.0547
102.88	6.0555
102.90	6.0563
102.91	6.0569
102.93	6.0576
102.95	6.0580
102.96	6.0588
102.98	6.0594
102.99	6.0602
103.01	6.0608
103.03	6.0614
103.05	6.0623
103.06	6.0630
103.08	6.0637
103.10	6.0645
103.11	6.0655
103.13	6.0663
103.15	6.0670
103.16	6.0681
103.18	6.0688
103.20	6.0698
103.21	6.0708
103.23	6.0715
103.25	6.0722
103.27	6.0729
103.28	6.0736
103.30	6.0746
103.31	6.0755
103.33	6.0766
103.35	6.0775
103.36	6.0786
103.38	6.0795
103.40	6.0803
103.41	6.0814
103.43	6.0821
103.45	6.0830
103.46	6.0838
103.48	6.0847
103.50	6.0853
103.51	6.0864
103.53	6.0873
103.55	6.0885
103.56	6.0895
103.58	6.0903
103.60	6.0912
103.61	6.0923
103.63	6.0929
103.65	6.0940
103.67	6.0948
103.68	6.0954
103.70	6.0964
103.71	6.0972
103.73	6.0978
103.74	6.0987
103.76	6.0996
103.78	6.1002
103.79	6.1011
103.81	6.1020
103.83	6.1029
103.84	6.1037
103.86	6.1046
103.88	6.1053
103.90	6.1063
103.91	6.1070
103.93	6.1077
103.95	6.1086
103.96	6.1093
103.98	6.1098
104.00	6.1108
104.01	6.1118
104.03	6.1124
104.05	6.1134
104.06	6.1142
104.08	6.1152
104.09	6.1160
104.11	6.1168
104.13	6.1174
104.14	6.1183
104.16	6.1191
104.18	6.1201
104.20	6.1206
104.21	6.1216
104.23	6.1223
104.25	6.1232
104.26	6.1241
104.28	6.1251
104.29	6.1260
104.31	6.1268
104.33	6.1277
104.34	6.1288
104.36	6.1297
104.38	6.1308
104.39	6.1315
104.41	6.1322
104.43	6.1330
104.45	6.1337
104.46	6.1345
104.48	6.1355
104.50	6.1363
104.51	6.1369
104.53	6.1380
104.54	6.1390
104.56	6.1400
104.58	6.1408
104.60	6.1417
104.61	6.1425
104.63	6.1434
104.65	6.1442
104.66	6.1452
104.68	6.1461
104.70	6.1470
104.71	6.1480
104.73	6.1487
104.75	6.1493
104.77	6.1499
104.78	6.1508
104.79	6.1517
104.81	6.1529
104.83	6.1538
104.85	6.1546
104.86	6.1554
104.88	6.1560
104.89	6.1570
104.91	6.1577
104.93	6.1587
104.95	6.1592
104.96	6.1599
104.98	6.1608
104.99	6.1617
105.01	6.1625
105.03	6.1634
105.05	6.1643
105.06	6.1650
105.08	6.1659
105.10	6.1669
105.11	6.1677
105.13	6.1685
105.15	6.1693
105.16	6.1700
105.18	6.1707
105.19	6.1718
105.21	6.1726
105.23	6.1733
105.25	6.1741
105.26	6.1748
105.28	6.1754
105.30	6.1765
105.31	6.1773
105.33	6.1781
105.35	6.1788
105.36	6.1799
105.38	6.1808
105.39	6.1816
105.41	6.1824
105.43	6.1834
105.45	6.1845
105.46	6.1850
105.48	6.1859
105.50	6.1869
105.51	6.1880
105.53	6.1888
105.54	6.1899
105.56	6.1906
105.58	6.1916
105.59	6.1927
105.61	6.1936
105.63	6.1944
105.64	6.1955
105.66	6.1963
105.68	6.1971
105.70	6.1982
105.71	6.1990
105.73	6.2000
105.75	6.2008
105.76	6.2016
105.78	6.2025
105.80	6.2036
105.81	6.2045
105.83	6.2051
105.85	6.2061
105.86	6.2069
105.88	6.2080
105.90	6.2089
105.91	6.2096
105.93	6.2106
105.95	6.2113
105.96	6.2119
105.98	6.2129
105.99	6.2138
106.01	6.2143
106.03	6.2151
106.04	6.2159
106.06	6.2168
106.08	6.2178
106.09	6.2186
106.11	6.2194
106.13	6.2203
106.15	6.2211
106.16	6.2219
106.18	6.2229
106.20	6.2238
106.21	6.2246
106.23	6.2254
106.25	6.2263
106.26	6.2271
106.28	6.2281
106.29	6.2294
106.31	6.2302
106.33	6.2311
106.35	6.2323
106.36	6.2335
106.38	6.2344
106.39	6.2353
106.41	6.2362
106.43	6.2370
106.44	6.2379
106.46	6.2385
106.48	6.2395
106.50	6.2402
106.51	6.2412
106.53	6.2422
106.55	6.2429
106.56	6.2440
106.58	6.2449
106.60	6.2461
106.61	6.2469
106.63	6.2479
106.64	6.2489
106.66	6.2497
106.68	6.2507
106.69	6.2516
106.71	6.2524
106.73	6.2531
106.74	6.2541
106.76	6.2548
106.78	6.2558
106.79	6.2566
106.81	6.2577
106.83	6.2590
106.84	6.2599
106.86	6.2610
106.88	6.2619
106.90	6.2630
106.91	6.2637
106.93	6.2646
106.95	6.2656
106.96	6.2664
106.98	6.2671
106.99	6.2681
107.01	6.2690
107.02	6.2697
107.04	6.2708
107.06	6.2718
107.08	6.2728
107.09	6.2737
107.11	6.2743
107.13	6.2752
107.15	6.2759
107.16	6.2767
107.18	6.2775
107.19	6.2783
107.21	6.2791
107.23	6.2796
107.24	6.2804
107.26	6.2808
107.28	6.2817
107.29	6.2825
107.30	6.2834
107.33	6.2845
107.34	6.2854
107.36	6.2860
107.38	6.2871
107.39	6.2877
107.41	6.2883
107.43	6.2896
107.45	6.2903
107.46	6.2906
107.48	6.2912
107.49	6.2919
107.51	6.2924
107.53	6.2932
107.54	6.2944
107.55	6.2950
107.57	6.2959
107.59	6.2968
107.60	6.2976
107.63	6.2983
107.64	6.2990
107.66	6.2998
107.68	6.3008
107.69	6.3015
107.71	6.3023
107.73	6.3031
107.74	6.3039
107.76	6.3043
107.78	6.3049
107.79	6.3059
107.81	6.3064
107.83	6.3073
107.84	6.3082
107.86	6.3089
107.87	6.3095
107.89	6.3104
107.90	6.3111
107.93	6.3120
107.94	6.3127
107.96	6.3134
107.97	6.3144
107.99	6.3153
108.00	6.3160
108.03	6.3168
108.04	6.3178
108.06	6.3188
108.08	6.3196
108.09	6.3205
108.11	6.3214
108.13	6.3223
108.14	6.3230
108.15	6.3238
108.18	6.3245
108.20	6.3254
108.21	6.3264
108.23	6.3273
108.25	6.3282
108.26	6.3288
108.28	6.3296
108.29	6.3306
108.31	6.3316
108.33	6.3328
108.34	6.3338
108.36	6.3348
108.37	6.3358
108.38	6.3370
108.41	6.3376
108.43	6.3385
108.44	6.3394
108.46	6.3404
108.47	6.3412
108.49	6.3423
108.51	6.3429
108.53	6.3437
108.54	6.3447
108.56	6.3452
108.58	6.3464
108.59	6.3471
108.61	6.3481
108.63	6.3490
108.64	6.3501
108.66	6.3509
108.68	6.3519
108.69	6.3526
108.70	6.3536
108.72	6.3543
108.74	6.3551
108.75	6.3559
108.78	6.3569
108.79	6.3579
108.80	6.3590
108.82	6.3602
108.84	6.3612
108.86	6.3622
108.88	6.3632
108.89	6.3640
108.91	6.3654
108.92	6.3660
108.94	6.3671
108.96	6.3679
108.98	6.3691
108.99	6.3700
109.01	6.3709
109.03	6.3718
109.04	6.3725
109.06	6.3734
109.08	6.3743
109.09	6.3752
109.11	6.3764
109.13	6.3773
109.14	6.3782
109.16	6.3791
109.17	6.3799
109.19	6.3806
109.21	6.3816
109.23	6.3824
109.25	6.3835
109.26	6.3843
109.28	6.3848
109.29	6.3856
109.31	6.3866
109.33	6.3875
109.34	6.3887
109.36	6.3895
109.37	6.3904
109.39	6.3913
109.40	6.3924
109.43	6.3934
109.44	6.3943
109.46	6.3951
109.48	6.3958
109.49	6.3968
109.50	6.3975
109.52	6.3985
109.54	6.3995
109.56	6.4005
109.58	6.4016
109.59	6.4027
109.61	6.4037
109.63	6.4044
109.64	6.4053
109.66	6.4059
109.68	6.4071
109.69	6.4081
109.71	6.4090
109.73	6.4095
109.74	6.4106
109.76	6.4115
109.78	6.4124
109.79	6.4131
109.80	6.4141
109.83	6.4150
109.84	6.4162
109.86	6.4173
109.88	6.4181
109.89	6.4188
109.91	6.4198
109.93	6.4208
109.94	6.4214
109.96	6.4222
109.98	6.4227
109.99	6.4234
110.01	6.4243
110.03	6.4248
110.04	6.4259
110.06	6.4267
110.07	6.4278
110.09	6.4286
110.11	6.4296
110.13	6.4307
110.14	6.4315
110.15	6.4325
110.17	6.4335
110.19	6.4341
110.21	6.4346
110.23	6.4357
110.24	6.4365
110.25	6.4373
110.28	6.4386
110.29	6.4393
110.31	6.4405
110.33	6.4413
110.34	6.4421
110.36	6.4430
110.37	6.4442
110.39	6.4447
110.40	6.4456
110.43	6.4466
110.44	6.4472
110.46	6.4483
110.48	6.4494
110.49	6.4502
110.50	6.4515
110.53	6.4523
110.55	6.4534
110.56	6.4541
110.58	6.4551
110.60	6.4561
110.61	6.4570
110.63	6.4579
110.64	6.4589
110.65	6.4600
110.67	6.4609
110.69	6.4616
110.70	6.4626
110.72	6.4638
110.74	6.4646
110.75	6.4654
110.77	6.4663
110.79	6.4672
110.81	6.4683
110.83	6.4692
110.84	6.4701
110.86	6.4710
110.88	6.4721
110.89	6.4732
110.90	6.4742
110.92	6.4751
110.94	6.4760
110.96	6.4772
110.98	6.4778
110.99	6.4784
111.01	6.4793
111.03	6.4802
111.04	6.4809
111.06	6.4819
111.08	6.4827
111.09	6.4837
111.11	6.4846
111.13	6.4857
111.14	6.4866
111.16	6.4876
111.18	6.4887
111.19	6.4896
111.21	6.4905
111.23	6.4914
111.24	6.4920
111.26	6.4931
111.28	6.4938
111.29	6.4947
111.31	6.4958
111.33	6.4969
111.34	6.4980
111.36	6.4991
111.38	6.5004
111.39	6.5010
111.41	6.5019
111.43	6.5029
111.44	6.5037
111.46	6.5045
111.48	6.5053
111.50	6.5060
111.51	6.5067
111.53	6.5076
111.55	6.5086
111.56	6.5096
111.58	6.5108
111.60	6.5116
111.61	6.5126
111.63	6.5136
111.64	6.5145
111.66	6.5154
111.68	6.5164
111.70	6.5173
111.71	6.5183
111.73	6.5193
111.74	6.5201
111.75	6.5211
111.77	6.5215
111.79	6.5225
111.81	6.5234
111.83	6.5245
111.85	6.5252
111.86	6.5264
111.88	6.5276
111.89	6.5282
111.90	6.5291
111.92	6.5300
111.94	6.5308
111.96	6.5318
111.98	6.5324
111.99	6.5334
112.01	6.5343
112.03	6.5349
112.04	6.5358
112.06	6.5366
112.08	6.5375
112.09	6.5385
112.11	6.5393
112.13	6.5402
112.14	6.5411
112.15	6.5423
112.17	6.5431
112.19	6.5438
112.21	6.5448
112.23	6.5458
112.24	6.5467
112.26	6.5476
112.28	6.5486
112.30	6.5495
112.31	6.5504
112.33	6.5514
112.34	6.5526
112.36	6.5538
112.38	6.5548
112.39	6.5555
112.41	6.5565
112.43	6.5574
112.44	6.5583
112.46	6.5593
112.48	6.5601
112.49	6.5613
112.51	6.5618
112.53	6.5622
112.55	6.5633
112.56	6.5644
112.58	6.5652
112.59	6.5661
112.60	6.5670
112.63	6.5681
112.65	6.5693
112.67	6.5701
112.68	6.5712
112.69	6.5719
112.71	6.5729
112.73	6.5737
112.75	6.5746
112.76	6.5750
112.78	6.5759
112.79	6.5765
112.81	6.5776
112.83	6.5782
112.85	6.5795
112.86	6.5804
112.88	6.5817
112.89	6.5826
112.91	6.5839
112.93	6.5849
112.94	6.5859
112.96	6.5868
112.98	6.5876
112.99	6.5884
113.01	6.5895
113.03	6.5902
113.05	6.5910
113.06	6.5917
113.08	6.5930
113.09	6.5936
113.11	6.5945
113.13	6.5957
113.14	6.5965
113.16	6.5973
113.18	6.5981
113.20	6.5989
113.21	6.5996
113.23	6.6004
113.24	6.6011
113.26	6.6019
113.28	6.6027
113.30	6.6035
113.31	6.6046
113.33	6.6059
113.34	6.6068
113.35	6.6077
113.38	6.6087
113.39	6.6097
113.41	6.6105
113.43	6.6114
113.44	6.6124
113.46	6.6133
113.48	6.6141
113.50	6.6148
113.51	6.6157
113.53	6.6170
113.54	6.6177
113.56	6.6187
113.58	6.6197
113.59	6.6208
113.61	6.6218
113.62	6.6228
113.65	6.6238
113.66	6.6248
113.68	6.6258
113.69	6.6266
113.71	6.6276
113.73	6.6283
113.74	6.6290
113.75	6.6296
113.77	6.6305
113.79	6.6316
113.81	6.6324
113.83	6.6336
113.85	6.6345
113.86	6.6355
113.88	6.6366
113.89	6.6376
113.91	6.6386
113.93	6.6398
113.95	6.6406
113.96	6.6416
113.98	6.6427
113.99	6.6438
114.01	6.6446
114.03	6.6456
114.05	6.6466
114.06	6.6474
114.08	6.6487
114.10	6.6496
114.11	6.6505
114.13	6.6516
114.15	6.6522
114.16	6.6533
114.18	6.6545
114.19	6.6554
114.21	6.6562
114.23	6.6571
114.24	6.6580
114.25	6.6585
114.28	6.6595
114.30	6.6604
114.31	6.6613
114.33	6.6625
114.34	6.6632
114.36	6.6639
114.38	6.6647
114.40	6.6657
114.41	6.6667
114.43	6.6674
114.45	6.6683
114.46	6.6691
114.48	6.6699
114.49	6.6709
114.51	6.6718
114.53	6.6725
114.54	6.6735
114.56	6.6747
114.58	6.6756
114.60	6.6766
114.61	6.6777
114.63	6.6786
114.65	6.6795
114.66	6.6804
114.68	6.6812
114.70	6.6821
114.71	6.6831
114.73	6.6839
114.74	6.6849
114.76	6.6856
114.78	6.6866
114.79	6.6875
114.81	6.6886
114.83	6.6896
114.85	6.6909
114.86	6.6919
114.88	6.6927
114.89	6.6938
114.91	6.6946
114.93	6.6955
114.95	6.6964
114.96	6.6974
114.98	6.6981
115.00	6.6991
115.01	6.7000
115.03	6.7010
115.04	6.7020
115.06	6.7032
115.08	6.7045
115.09	6.7056
115.11	6.7067
115.13	6.7077
115.14	6.7088
115.16	6.7096
115.17	6.7107
115.19	6.7117
115.21	6.7126
115.23	6.7135
115.24	6.7146
115.26	6.7154
115.28	6.7162
115.29	6.7174
115.30	6.7186
115.30	6.7198
115.31	6.7210
115.35	6.7222
115.38	6.7231
115.39	6.7243
115.41	6.7254
115.43	6.7263
115.44	6.7272
115.46	6.7280
115.47	6.7290
115.49	6.7298
115.51	6.7309
115.53	6.7319
115.54	6.7330
115.56	6.7341
115.58	6.7351
115.60	6.7363
115.61	6.7375
115.63	6.7384
115.64	6.7394
115.66	6.7402
115.68	6.7413
115.69	6.7422
115.71	6.7431
115.73	6.7441
115.74	6.7452
115.76	6.7459
115.78	6.7468
115.79	6.7478
115.80	6.7488
115.83	6.7498
115.84	6.7509
115.86	6.7520
115.87	6.7530
115.89	6.7539
115.91	6.7550
115.93	6.7557
115.94	6.7567
115.95	6.7574
115.98	6.7582
115.99	6.7592
116.01	6.7599
116.03	6.7608
116.04	6.7618
116.06	6.7628
116.08	6.7638
116.09	6.7648
116.11	6.7658
116.13	6.7668
116.14	6.7675
116.16	6.7685
116.18	6.7694
116.19	6.7704
116.20	6.7712
116.23	6.7720
116.24	6.7730
116.26	6.7737
116.27	6.7744
116.29	6.7753
116.31	6.7763
116.33	6.7773
116.34	6.7779
116.36	6.7790
116.38	6.7798
116.39	6.7807
116.41	6.7815
116.43	6.7823
116.44	6.7832
116.46	6.7838
116.48	6.7847
116.50	6.7856
116.51	6.7865
116.53	6.7873
116.54	6.7883
116.56	6.7894
116.58	6.7901
116.59	6.7910
116.61	6.7920
116.62	6.7931
116.64	6.7941
116.66	6.7952
116.68	6.7960
116.69	6.7966
116.71	6.7977
116.72	6.7984
116.74	6.7994
116.76	6.7999
116.78	6.8008
116.79	6.8017
116.80	6.8028
116.83	6.8036
116.84	6.8046
116.86	6.8055
116.88	6.8066
116.89	6.8076
116.90	6.8083
116.93	6.8094
116.94	6.8103
116.96	6.8113
116.98	6.8120
116.99	6.8131
117.01	6.8139
117.03	6.8151
117.04	6.8165
117.05	6.8176
117.08	6.8186
117.09	6.8197
117.10	6.8208
117.13	6.8218
117.14	6.8226
117.16	6.8239
117.18	6.8248
117.19	6.8260
117.21	6.8271
117.22	6.8278
117.24	6.8286
117.25	6.8295
117.27	6.8306
117.29	6.8317
117.31	6.8327
117.33	6.8340
117.34	6.8352
117.35	6.8361
117.38	6.8371
117.39	6.8383
117.41	6.8394
117.43	6.8403
117.44	6.8415
117.46	6.8426
117.48	6.8433
117.49	6.8443
117.50	6.8454
117.53	6.8463
117.54	6.8476
117.55	6.8486
117.58	6.8498
117.59	6.8511
117.61	6.8524
117.63	6.8533
117.64	6.8544
117.66	6.8555
117.68	6.8567
117.69	6.8576
117.71	6.8589
117.72	6.8600
117.74	6.8611
117.76	6.8621
117.78	6.8630
117.79	6.8641
117.80	6.8653
117.82	6.8664
117.84	6.8677
117.85	6.8687
117.87	6.8698
117.89	6.8710
117.91	6.8719
117.92	6.8728
117.94	6.8738
117.96	6.8747
117.98	6.8758
117.99	6.8766
118.00	6.8777
118.02	6.8787
118.04	6.8798
118.05	6.8810
118.08	6.8818
118.09	6.8828
118.11	6.8837
118.12	6.8849
118.14	6.8859
118.15	6.8868
118.17	6.8875
118.19	6.8882
118.20	6.8892
118.22	6.8902
118.24	6.8911
118.25	6.8921
118.27	6.8930
118.29	6.8942
118.30	6.8951
118.33	6.8960
118.34	6.8969
118.35	6.8979
118.37	6.8987
118.39	6.8997
118.40	6.9006
118.42	6.9016
118.44	6.9020
118.45	6.9028
118.48	6.9035
118.49	6.9044
118.50	6.9054
118.53	6.9064
118.54	6.9073
118.56	6.9083
118.58	6.9095
118.59	6.9104
118.61	6.9113
118.63	6.9119
118.64	6.9129
118.66	6.9139
118.68	6.9148
118.70	6.9157
118.71	6.9161
118.73	6.9170
118.74	6.9180
118.76	6.9192
118.78	6.9199
118.79	6.9208
118.80	6.9218
118.82	6.9224
118.84	6.9238
118.86	6.9249
118.87	6.9259
118.89	6.9267
118.90	6.9276
118.92	6.9285
118.94	6.9293
118.95	6.9301
118.97	6.9307
118.99	6.9316
119.00	6.9325
119.03	6.9333
119.04	6.9346
119.06	6.9355
119.08	6.9364
119.09	6.9376
119.11	6.9387
119.13	6.9397
119.14	6.9409
119.16	6.9417
119.17	6.9426
119.19	6.9436
119.20	6.9443
119.23	6.9453
119.24	6.9462
119.25	6.9472
119.27	6.9482
119.29	6.9493
119.30	6.9501
119.33	6.9512
119.34	6.9522
119.36	6.9536
119.38	6.9545
119.39	6.9553
119.41	6.9564
119.42	6.9569
119.44	6.9578
119.45	6.9584
119.47	6.9595
119.49	6.9606
119.51	6.9615
119.52	6.9628
119.54	6.9640
119.55	6.9649
119.57	6.9663
119.59	6.9672
119.61	6.9683
119.62	6.9692
119.64	6.9701
119.65	6.9706
119.67	6.9715
119.69	6.9727
119.71	6.9734
119.73	6.9745
119.75	6.9756
119.76	6.9766
119.78	6.9781
119.80	6.9793
119.81	6.9804
119.83	6.9814
119.84	6.9824
119.86	6.9832
119.88	6.9842
119.89	6.9852
119.91	6.9863
119.93	6.9875
119.94	6.9882
119.95	6.9894
119.98	6.9903
119.99	6.9912
120.01	6.9925
120.02	6.9936
120.04	6.9949
120.06	6.9960
120.08	6.9971
120.09	6.9982
120.10	6.9990
120.13	7.0002
120.14	7.0013
120.16	7.0026
120.18	7.0037
120.19	7.0049
120.21	7.0058
120.23	7.0069
120.25	7.0077
120.26	7.0089
120.28	7.0102
120.29	7.0110
120.31	7.0121
120.33	7.0132
120.34	7.0144
120.35	7.0156
120.37	7.0164
120.39	7.0174
120.40	7.0182
120.42	7.0195
120.44	7.0203
120.46	7.0213
120.48	7.0222
120.49	7.0233
120.51	7.0245
120.53	7.0256
120.54	7.0269
120.56	7.0282
120.58	7.0294
120.59	7.0305
120.60	7.0317
120.63	7.0325
120.64	7.0335
120.66	7.0346
120.68	7.0357
120.69	7.0367
120.71	7.0377
120.73	7.0388
120.74	7.0400
120.75	7.0412
120.78	7.0423
120.80	7.0434
120.81	7.0443
120.83	7.0453
120.84	7.0463
120.86	7.0474
120.88	7.0485
120.89	7.0496
120.90	7.0508
120.92	7.0517
120.94	7.0527
120.95	7.0536
120.98	7.0545
120.99	7.0557
121.01	7.0567
121.03	7.0579
121.04	7.0590
121.06	7.0601
121.08	7.0612
121.09	7.0623
121.11	7.0632
121.13	7.0640
121.14	7.0652
121.16	7.0661
121.18	7.0670
121.19	7.0679
121.21	7.0689
121.23	7.0697
121.25	7.0706
121.26	7.0715
121.27	7.0725
121.29	7.0735
121.30	7.0745
121.33	7.0754
121.34	7.0765
121.36	7.0775
121.38	7.0783
121.39	7.0795
121.41	7.0803
121.43	7.0811
121.44	7.0823
121.46	7.0826
121.47	7.0839
121.49	7.0847
121.51	7.0860
121.53	7.0870
121.54	7.0881
121.56	7.0890
121.58	7.0902
121.60	7.0911
121.61	7.0920
121.63	7.0928
121.64	7.0938
121.66	7.0950
121.68	7.0958
121.69	7.0966
121.71	7.0977
121.73	7.0986
121.74	7.0997
121.76	7.1008
121.78	7.1018
121.79	7.1029
121.81	7.1040
121.83	7.1052
121.84	7.1061
121.86	7.1070
121.88	7.1081
121.89	7.1095
121.91	7.1103
121.93	7.1112
121.95	7.1124
121.96	7.1134
121.98	7.1141
121.99	7.1152
122.01	7.1163
122.03	7.1176
122.04	7.1187
122.06	7.1200
122.08	7.1211
122.09	7.1222
122.11	7.1233
122.13	7.1245
122.14	7.1257
122.16	7.1265
122.18	7.1277
122.19	7.1289
122.21	7.1300
122.23	7.1312
122.24	7.1324
122.26	7.1335
122.28	7.1348
122.29	7.1357
122.31	7.1369
122.33	7.1379
122.34	7.1389
122.35	7.1398
122.37	7.1408
122.39	7.1421
122.41	7.1431
122.43	7.1439
122.45	7.1450
122.46	7.1457
122.48	7.1468
122.49	7.1478
122.51	7.1487
122.53	7.1498
122.54	7.1508
122.55	7.1517
122.58	7.1528
122.59	7.1537
122.61	7.1547
122.63	7.1556
122.64	7.1563
122.66	7.1571
122.68	7.1580
122.69	7.1588
122.71	7.1595
122.73	7.1606
122.74	7.1615
122.75	7.1626
122.78	7.1636
122.79	7.1648
122.81	7.1658
122.83	7.1666
122.85	7.1679
122.86	7.1686
122.88	7.1698
122.89	7.1706
122.91	7.1717
122.92	7.1723
122.94	7.1732
122.95	7.1739
122.98	7.1749
123.00	7.1761
123.01	7.1768
123.02	7.1779
123.04	7.1788
123.05	7.1799
123.08	7.1812
123.09	7.1822
123.11	7.1832
123.12	7.1841
123.14	7.1850
123.16	7.1860
123.18	7.1872
123.20	7.1882
123.21	7.1893
123.23	7.1901
123.24	7.1914
123.26	7.1923
123.28	7.1934
123.29	7.1944
123.31	7.1952
123.33	7.1962
123.34	7.1973
123.36	7.1984
123.38	7.1996
123.40	7.2007
123.41	7.2017
123.43	7.2025
123.44	7.2037
123.46	7.2049
123.48	7.2058
123.49	7.2070
123.51	7.2079
123.53	7.2091
123.54	7.2103
123.55	7.2114
123.57	7.2126
123.59	7.2139
123.60	7.2148
123.62	7.2160
123.64	7.2170
123.66	7.2177
123.68	7.2189
123.69	7.2199
123.71	7.2211
123.73	7.2222
123.74	7.2233
123.76	7.2244
123.78	7.2256
123.80	7.2267
123.81	7.2281
123.83	7.2293
123.84	7.2304
123.86	7.2313
123.88	7.2325
123.89	7.2333
123.91	7.2344
123.93	7.2353
123.95	7.2364
123.96	7.2371
123.98	7.2381
123.99	7.2392
124.01	7.2401
124.03	7.2412
124.04	7.2422
124.06	7.2431
124.08	7.2441
124.10	7.2451
124.11	7.2461
124.13	7.2470
124.15	7.2480
124.16	7.2488
124.18	7.2497
124.19	7.2506
124.21	7.2518
124.23	7.2531
124.24	7.2542
124.25	7.2552
124.28	7.2563
124.29	7.2572
124.31	7.2582
124.33	7.2594
124.34	7.2607
124.36	7.2618
124.38	7.2629
124.39	7.2641
124.40	7.2651
124.42	7.2662
124.44	7.2675
124.46	7.2684
124.48	7.2696
124.49	7.2707
124.51	7.2715
124.53	7.2728
124.54	7.2740
124.55	7.2750
124.57	7.2762
124.59	7.2772
124.61	7.2781
124.63	7.2793
124.65	7.2802
124.66	7.2814
124.68	7.2825
124.70	7.2837
124.71	7.2848
124.73	7.2860
124.74	7.2870
124.75	7.2882
124.78	7.2893
124.79	7.2905
124.80	7.2915
124.82	7.2927
124.84	7.2940
124.86	7.2952
124.88	7.2962
124.89	7.2972
124.91	7.2985
124.93	7.2995
124.94	7.3005
124.96	7.3015
124.98	7.3024
125.00	7.3034
125.01	7.3048
125.03	7.3058
125.04	7.3068
125.06	7.3079
125.08	7.3090
125.09	7.3100
125.11	7.3112
125.13	7.3120
125.14	7.3130
125.16	7.3138
125.17	7.3147
125.19	7.3156
125.21	7.3169
125.23	7.3180
125.24	7.3190
125.26	7.3200
125.28	7.3212
125.30	7.3224
125.31	7.3235
125.33	7.3246
125.35	7.3258
125.36	7.3266
125.38	7.3275
125.39	7.3285
125.40	7.3296
125.42	7.3305
125.44	7.3315
125.46	7.3328
125.47	7.3338
125.49	7.3350
125.51	7.3361
125.53	7.3373
125.54	7.3384
125.56	7.3395
125.58	7.3407
125.59	7.3418
125.61	7.3425
125.63	7.3435
125.64	7.3444
125.66	7.3451
125.67	7.3463
125.69	7.3469
125.70	7.3479
125.72	7.3491
125.74	7.3499
125.76	7.3511
125.78	7.3520
125.79	7.3529
125.81	7.3538
125.83	7.3548
125.84	7.3559
125.86	7.3570
125.88	7.3580
125.89	7.3589
125.91	7.3601
125.93	7.3609
125.94	7.3619
125.96	7.3629
125.98	7.3641
125.99	7.3651
126.01	7.3664
126.03	7.3676
126.04	7.3688
126.06	7.3699
126.08	7.3710
126.09	7.3720
126.10	7.3730
126.12	7.3742
126.14	7.3750
126.15	7.3762
126.18	7.3773
126.19	7.3783
126.20	7.3794
126.22	7.3807
126.24	7.3817
126.25	7.3828
126.28	7.3838
126.29	7.3848
126.30	7.3859
126.33	7.3872
126.34	7.3883
126.36	7.3894
126.38	7.3902
126.40	7.3912
126.41	7.3921
126.43	7.3930
126.44	7.3942
126.46	7.3953
126.48	7.3965
126.49	7.3976
126.50	7.3986
126.53	7.3999
126.54	7.4009
126.55	7.4020
126.57	7.4030
126.59	7.4039
126.60	7.4048
126.63	7.4059
126.64	7.4068
126.66	7.4079
126.68	7.4092
126.69	7.4104
126.71	7.4116
126.72	7.4130
126.74	7.4142
126.75	7.4152
126.77	7.4161
126.79	7.4173
126.81	7.4183
126.83	7.4190
126.84	7.4201
126.86	7.4212
126.88	7.4222
126.89	7.4231
126.90	7.4243
126.92	7.4255
126.94	7.4267
126.95	7.4275
126.97	7.4287
126.99	7.4298
127.01	7.4309
127.03	7.4321
127.04	7.4330
127.06	7.4338
127.08	7.4348
127.09	7.4360
127.11	7.4372
127.12	7.4382
127.14	7.4390
127.16	7.4402
127.18	7.4414
127.19	7.4424
127.21	7.4435
127.22	7.4447
127.24	7.4459
127.25	7.4471
127.27	7.4484
127.29	7.4494
127.30	7.4504
127.32	7.4514
127.34	7.4525
127.35	7.4536
127.37	7.4549
127.38	7.4558
127.40	7.4568
127.42	7.4582
127.44	7.4591
127.46	7.4603
127.47	7.4616
127.49	7.4629
127.50	7.4644
127.52	7.4654
127.54	7.4666
127.55	7.4678
127.57	7.4690
127.59	7.4700
127.60	7.4712
127.63	7.4722
127.64	7.4734
127.65	7.4745
127.68	7.4756
127.69	7.4768
127.71	7.4779
127.72	7.4792
127.74	7.4804
127.76	7.4816
127.78	7.4827
127.80	7.4839
127.81	7.4849
127.82	7.4859
127.84	7.4869
127.85	7.4880
127.88	7.4894
127.89	7.4904
127.91	7.4912
127.92	7.4922
127.94	7.4933
127.96	7.4943
127.98	7.4954
127.99	7.4964
128.01	7.4974
128.02	7.4985
128.04	7.4995
128.06	7.5005
128.07	7.5017
128.09	7.5027
128.10	7.5036
128.13	7.5046
128.14	7.5058
128.16	7.5066
128.18	7.5079
128.19	7.5090
128.20	7.5105
128.22	7.5116
128.24	7.5127
128.25	7.5140
128.27	7.5152
128.29	7.5161
128.30	7.5175
128.32	7.5187
128.34	7.5199
128.35	7.5208
128.38	7.5221
128.39	7.5231
128.41	7.5242
128.43	7.5258
128.44	7.5269
128.46	7.5283
128.47	7.5296
128.49	7.5310
128.50	7.5321
128.52	7.5333
128.54	7.5346
128.56	7.5356
128.57	7.5367
128.59	7.5380
128.61	7.5389
128.63	7.5403
128.64	7.5411
128.65	7.5423
128.68	7.5438
128.69	7.5448
128.70	7.5462
128.72	7.5475
128.74	7.5486
128.76	7.5497
128.78	7.5509
128.79	7.5519
128.81	7.5530
128.82	7.5540
128.84	7.5552
128.86	7.5565
128.88	7.5579
128.90	7.5592
128.91	7.5606
128.93	7.5620
128.94	7.5631
128.96	7.5643
128.97	7.5656
128.99	7.5663
129.01	7.5675
129.02	7.5685
129.04	7.5698
129.06	7.5708
129.07	7.5722
129.09	7.5730
129.10	7.5741
129.12	7.5752
129.14	7.5764
129.15	7.5777
129.18	7.5786
129.19	7.5799
129.21	7.5810
129.22	7.5820
129.24	7.5828
129.25	7.5844
129.28	7.5855
129.30	7.5865
129.31	7.5874
129.32	7.5885
129.34	7.5894
129.35	7.5905
129.38	7.5914
129.39	7.5924
129.41	7.5935
129.43	7.5945
129.44	7.5955
129.45	7.5966
129.47	7.5977
129.49	7.5984
129.51	7.5994
129.53	7.6003
129.54	7.6012
129.56	7.6021
129.57	7.6031
129.59	7.6035
129.61	7.6046
129.63	7.6056
129.64	7.6064
129.66	7.6076
129.68	7.6087
129.69	7.6097
129.71	7.6106
129.72	7.6117
129.74	7.6129
129.76	7.6137
129.78	7.6146
129.80	7.6153
129.81	7.6165
129.83	7.6174
129.84	7.6182
129.86	7.6192
129.88	7.6204
129.89	7.6216
129.91	7.6227
129.93	7.6235
129.94	7.6244
129.95	7.6257
129.97	7.6265
129.99	7.6275
130.01	7.6287
130.03	7.6296
130.05	7.6308
130.06	7.6319
130.08	7.6330
130.10	7.6340
130.11	7.6349
130.13	7.6359
130.14	7.6372
130.16	7.6385
130.18	7.6395
130.19	7.6407
130.21	7.6422
130.22	7.6431
130.24	7.6443
130.26	7.6451
130.28	7.6461
130.29	7.6471
130.31	7.6481
130.33	7.6491
130.34	7.6502
130.36	7.6513
130.38	7.6523
130.39	7.6537
130.41	7.6549
130.43	7.6560
130.44	7.6572
130.46	7.6585
130.47	7.6596
130.49	7.6607
130.51	7.6619
130.53	7.6628
130.54	7.6641
130.56	7.6652
130.57	7.6662
130.59	7.6676
130.61	7.6688
130.63	7.6702
130.65	7.6714
130.66	7.6728
130.68	7.6739
130.69	7.6751
130.71	7.6765
130.73	7.6777
130.75	7.6790
130.76	7.6803
130.78	7.6816
130.79	7.6828
130.81	7.6840
130.82	7.6854
130.84	7.6866
130.86	7.6879
130.88	7.6890
130.89	7.6906
130.91	7.6920
130.93	7.6930
130.94	7.6946
130.96	7.6959
130.98	7.6970
131.00	7.6980
131.01	7.6994
131.03	7.7007
131.04	7.7017
131.06	7.7029
131.08	7.7041
131.10	7.7053
131.11	7.7063
131.13	7.7074
131.14	7.7085
131.16	7.7098
131.18	7.7110
131.19	7.7123
131.21	7.7135
131.22	7.7147
131.25	7.7158
131.26	7.7168
131.28	7.7178
131.29	7.7189
131.31	7.7199
131.32	7.7209
131.34	7.7219
131.36	7.7231
131.38	7.7243
131.40	7.7255
131.41	7.7267
131.43	7.7278
131.44	7.7290
131.46	7.7300
131.48	7.7312
131.50	7.7321
131.51	7.7333
131.53	7.7345
131.55	7.7355
131.55	7.7366
131.57	7.7375
131.59	7.7388
131.61	7.7400
131.63	7.7412
131.65	7.7424
131.66	7.7434
131.68	7.7447
131.69	7.7459
131.71	7.7473
131.73	7.7483
131.74	7.7494
131.76	7.7505
131.78	7.7515
131.79	7.7526
131.81	7.7539
131.83	7.7550
131.85	7.7562
131.86	7.7571
131.88	7.7586
131.89	7.7595
131.91	7.7606
131.93	7.7619
131.94	7.7631
131.96	7.7640
131.97	7.7651
131.99	7.7664
132.01	7.7674
132.03	7.7685
132.05	7.7694
132.06	7.7706
132.08	7.7716
132.09	7.7728
132.11	7.7740
132.13	7.7749
132.15	7.7755
132.17	7.7767
132.18	7.7776
132.19	7.7787
132.21	7.7798
132.23	7.7808
132.25	7.7818
132.26	7.7829
132.28	7.7837
132.30	7.7848
132.31	7.7859
132.32	7.7869
132.34	7.7882
132.36	7.7894
132.38	7.7907
132.40	7.7917
132.42	7.7931
132.43	7.7942
132.44	7.7953
132.46	7.7965
132.47	7.7975
132.50	7.7987
132.52	7.7997
132.53	7.8009
132.55	7.8021
132.56	7.8032
132.58	7.8044
132.60	7.8057
132.61	7.8069
132.63	7.8081
132.65	7.8091
132.66	7.8103
132.68	7.8116
132.69	7.8127
132.71	7.8141
132.73	7.8155
132.75	7.8166
132.76	7.8178
132.78	7.8190
132.79	7.8202
132.81	7.8213
132.83	7.8226
132.85	7.8238
132.86	7.8252
132.88	7.8264
132.89	7.8276
132.91	7.8290
132.93	7.8302
132.94	7.8315
132.96	7.8328
132.97	7.8338
132.99	7.8350
133.01	7.8361
133.03	7.8372
133.05	7.8385
133.06	7.8395
133.08	7.8409
133.10	7.8418
133.11	7.8433
133.13	7.8444
133.15	7.8457
133.16	7.8469
133.18	7.8481
133.19	7.8491
133.21	7.8503
133.22	7.8516
133.24	7.8530
133.26	7.8543
133.28	7.8554
133.29	7.8565
133.31	7.8575
133.33	7.8588
133.35	7.8603
133.36	7.8617
133.38	7.8628
133.39	7.8641
133.41	7.8654
133.43	7.8666
133.44	7.8679
133.46	7.8692
133.48	7.8705
133.50	7.8719
133.51	7.8729
133.53	7.8742
133.55	7.8753
133.56	7.8766
133.57	7.8778
133.59	7.8791
133.61	7.8803
133.63	7.8815
133.65	7.8828
133.66	7.8840
133.68	7.8852
133.69	7.8864
133.71	7.8875
133.73	7.8887
133.75	7.8899
133.76	7.8910
133.78	7.8923
133.80	7.8936
133.81	7.8948
133.83	7.8958
133.85	7.8973
133.86	7.8986
133.88	7.8998
133.90	7.9008
133.91	7.9021
133.93	7.9033
133.94	7.9043
133.96	7.9057
133.98	7.9068
134.00	7.9079
134.01	7.9091
134.03	7.9104
134.05	7.9117
134.06	7.9131
134.07	7.9142
134.10	7.9157
134.11	7.9170
134.13	7.9181
134.15	7.9191
134.18	7.9204
134.20	7.9214
134.21	7.9228
134.22	7.9241
134.22	7.9253
134.23	7.9266
134.26	7.9277
134.28	7.9289
134.29	7.9301
134.31	7.9313
134.33	7.9325
134.34	7.9339
134.36	7.9351
134.38	7.9364
134.40	7.9379
134.41	7.9390
134.43	7.9403
134.44	7.9414
134.46	7.9426
134.48	7.9437
134.50	7.9449
134.51	7.9460
134.53	7.9471
134.55	7.9485
134.56	7.9500
134.58	7.9513
134.60	7.9527
134.61	7.9539
134.63	7.9551
134.65	7.9563
134.66	7.9574
134.68	7.9584
134.69	7.9596
134.71	7.9607
134.73	7.9618
134.75	7.9630
134.76	7.9640
134.78	7.9653
134.80	7.9666
134.81	7.9679
134.82	7.9691
134.84	7.9703
134.86	7.9714
134.88	7.9727
134.90	7.9742
134.91	7.9753
134.93	7.9766
134.94	7.9779
134.95	7.9789
134.97	7.9801
134.99	7.9812
135.01	7.9825
135.03	7.9836
135.05	7.9848
135.06	7.9860
135.07	7.9873
135.09	7.9887
135.11	7.9898
135.13	7.9912
135.14	7.9923
135.16	7.9938
135.18	7.9946
135.19	7.9959
135.21	7.9970
135.22	7.9982
135.24	7.9995
135.26	8.0006
135.28	8.0019
135.29	8.0031
135.31	8.0043
135.32	8.0057
135.34	8.0069
135.36	8.0083
135.38	8.0098
135.39	8.0111
135.41	8.0123
135.43	8.0135
135.44	8.0146
135.46	8.0157
135.47	8.0167
135.49	8.0180
135.51	8.0191
135.53	8.0206
135.54	8.0219
135.56	8.0232
135.57	8.0246
135.60	8.0258
135.61	8.0269
135.63	8.0280
135.65	8.0295
135.66	8.0304
135.68	8.0315
135.69	8.0328
135.71	8.0341
135.73	8.0351
135.75	8.0365
135.76	8.0374
135.78	8.0387
135.79	8.0401
135.81	8.0412
135.82	8.0423
135.84	8.0435
135.86	8.0445
135.88	8.0457
135.89	8.0467
135.91	8.0478
135.93	8.0489
135.94	8.0497
135.96	8.0506
135.98	8.0517
136.00	8.0528
136.01	8.0539
136.03	8.0550
136.04	8.0562
136.06	8.0571
136.07	8.0584
136.09	8.0595
136.11	8.0608
136.13	8.0620
136.14	8.0633
136.16	8.0643
136.18	8.0656
136.19	8.0669
136.20	8.0679
136.22	8.0693
136.24	8.0708
136.25	8.0721
136.28	8.0735
136.29	8.0748
136.30	8.0758
136.32	8.0773
136.34	8.0786
136.36	8.0800
136.38	8.0813
136.39	8.0826
136.41	8.0839
136.43	8.0853
136.44	8.0865
136.46	8.0875
136.47	8.0887
136.50	8.0902
136.51	8.0913
136.53	8.0929
136.54	8.0943
136.56	8.0958
136.58	8.0971
136.60	8.0987
136.61	8.1000
136.63	8.1013
136.65	8.1026
136.66	8.1041
136.68	8.1052
136.69	8.1066
136.71	8.1079
136.72	8.1093
136.74	8.1108
136.75	8.1120
136.78	8.1136
136.79	8.1149
136.81	8.1161
136.83	8.1175
136.84	8.1187
136.86	8.1201
136.88	8.1212
136.89	8.1226
136.91	8.1237
136.93	8.1250
136.94	8.1263
136.96	8.1275
136.98	8.1286
137.00	8.1301
137.01	8.1314
137.02	8.1329
137.04	8.1342
137.06	8.1355
137.08	8.1368
137.09	8.1379
137.11	8.1391
137.13	8.1401
137.14	8.1415
137.16	8.1422
137.18	8.1435
137.19	8.1448
137.21	8.1463
137.22	8.1473
137.25	8.1485
137.26	8.1500
137.28	8.1512
137.30	8.1527
137.31	8.1538
137.33	8.1550
137.35	8.1562
137.36	8.1572
137.38	8.1586
137.39	8.1597
137.41	8.1610
137.43	8.1622
137.44	8.1633
137.46	8.1645
137.47	8.1658
137.49	8.1671
137.51	8.1685
137.53	8.1699
137.55	8.1712
137.56	8.1726
137.58	8.1737
137.59	8.1750
137.61	8.1762
137.63	8.1775
137.65	8.1786
137.66	8.1800
137.68	8.1813
137.69	8.1827
137.71	8.1839
137.73	8.1853
137.75	8.1866
137.76	8.1880
137.78	8.1893
137.80	8.1906
137.81	8.1920
137.83	8.1932
137.85	8.1945
137.86	8.1958
137.88	8.1969
137.89	8.1983
137.91	8.1994
137.93	8.2006
137.94	8.2018
137.96	8.2031
137.98	8.2041
138.00	8.2054
138.02	8.2066
138.03	8.2081
138.05	8.2093
138.06	8.2105
138.08	8.2118
138.10	8.2131
138.11	8.2140
138.13	8.2152
138.15	8.2163
138.16	8.2175
138.18	8.2186
138.20	8.2197
138.21	8.2210
138.23	8.2225
138.25	8.2237
138.26	8.2251
138.28	8.2265
138.30	8.2278
138.32	8.2291
138.33	8.2303
138.35	8.2316
138.36	8.2329
138.38	8.2340
138.40	8.2353
138.41	8.2363
138.43	8.2375
138.44	8.2387
138.46	8.2399
138.48	8.2411
138.50	8.2423
138.51	8.2436
138.53	8.2448
138.55	8.2460
138.57	8.2474
138.58	8.2485
138.60	8.2497
138.61	8.2510
138.63	8.2523
138.65	8.2536
138.67	8.2548
138.68	8.2561
138.69	8.2573
138.71	8.2585
138.73	8.2599
138.75	8.2613
138.76	8.2627
138.78	8.2642
138.80	8.2656
138.81	8.2668
138.83	8.2681
138.85	8.2693
138.87	8.2707
138.88	8.2721
138.90	8.2732
138.91	8.2745
138.93	8.2755
138.94	8.2770
138.97	8.2783
138.98	8.2797
139.00	8.2810
139.02	8.2825
139.03	8.2840
139.05	8.2853
139.06	8.2867
139.08	8.2880
139.09	8.2896
139.11	8.2909
139.13	8.2922
139.15	8.2936
139.17	8.2950
139.18	8.2965
139.20	8.2982
139.21	8.2997
139.23	8.3013
139.25	8.3028
139.26	8.3041
139.28	8.3056
139.30	8.3069
139.31	8.3080
139.33	8.3095
139.35	8.3108
139.36	8.3120
139.38	8.3134
139.40	8.3149
139.41	8.3162
139.43	8.3176
139.45	8.3191
139.47	8.3206
139.48	8.3220
139.50	8.3233
139.51	8.3249
139.53	8.3262
139.55	8.3277
139.57	8.3291
139.58	8.3307
139.60	8.3320
139.61	8.3333
139.63	8.3347
139.65	8.3361
139.66	8.3373
139.68	8.3386
139.70	8.3400
139.72	8.3413
139.73	8.3426
139.75	8.3442
139.77	8.3452
139.78	8.3465
139.80	8.3479
139.82	8.3491
139.83	8.3506
139.85	8.3520
139.86	8.3532
139.88	8.3546
139.90	8.3557
139.92	8.3572
139.93	8.3588
139.94	8.3599
139.96	8.3616
139.98	8.3631
140.00	8.3645
140.02	8.3658
140.03	8.3672
140.05	8.3684
140.07	8.3696
140.08	8.3709
140.10	8.3720
140.12	8.3733
140.13	8.3745
140.15	8.3758
140.17	8.3770
140.18	8.3784
140.20	8.3796
140.22	8.3808
140.23	8.3820
140.25	8.3833
140.27	8.3847
140.28	8.3857
140.30	8.3868
140.32	8.3881
140.33	8.3892
140.35	8.3905
140.37	8.3917
140.38	8.3932
140.40	8.3942
140.42	8.3957
140.43	8.3971
140.45	8.3985
140.47	8.3996
140.48	8.4008
140.50	8.4020
140.52	8.4031
140.53	8.4043
140.55	8.4055
140.57	8.4066
140.58	8.4079
140.60	8.4088
140.62	8.4101
140.64	8.4111
140.65	8.4124
140.67	8.4135
140.69	8.4149
140.70	8.4160
140.72	8.4175
140.73	8.4188
140.75	8.4201
140.77	8.4213
140.78	8.4226
140.80	8.4239
140.82	8.4251
140.83	8.4264
140.85	8.4275
140.87	8.4288
140.88	8.4303
140.90	8.4317
140.92	8.4331
140.94	8.4343
140.95	8.4357
140.97	8.4369
140.99	8.4384
141.00	8.4397
141.02	8.4410
141.03	8.4422
141.05	8.4435
141.07	8.4449
141.08	8.4464
141.10	8.4477
141.12	8.4493
141.13	8.4507
141.15	8.4522
141.17	8.4537
141.18	8.4552
141.20	8.4566
141.22	8.4580
141.23	8.4593
141.25	8.4608
141.26	8.4623
141.28	8.4638
141.30	8.4651
141.32	8.4663
141.33	8.4675
141.35	8.4690
141.37	8.4704
141.38	8.4718
141.40	8.4732
141.42	8.4745
141.43	8.4761
141.45	8.4777
141.47	8.4791
141.49	8.4805
141.50	8.4817
141.52	8.4831
141.53	8.4846
141.55	8.4859
141.57	8.4874
141.59	8.4887
141.60	8.4901
141.62	8.4913
141.63	8.4926
141.65	8.4942
141.67	8.4955
141.69	8.4973
141.70	8.4987
141.72	8.5001
141.73	8.5016
141.75	8.5028
141.77	8.5041
141.78	8.5052
141.80	8.5065
141.82	8.5077
141.83	8.5091
141.85	8.5103
141.87	8.5118
141.89	8.5132
141.90	8.5148
141.92	8.5162
141.93	8.5175
141.95	8.5188
141.97	8.5202
141.98	8.5216
142.00	8.5229
142.02	8.5242
142.03	8.5256
142.05	8.5268
142.07	8.5283
142.09	8.5298
142.10	8.5312
142.12	8.5327
142.13	8.5341
142.15	8.5355
142.17	8.5370
142.18	8.5382
142.20	8.5397
142.22	8.5411
142.24	8.5424
142.25	8.5439
142.27	8.5454
142.29	8.5468
142.30	8.5478
142.32	8.5491
142.33	8.5505
142.35	8.5519
142.37	8.5534
142.38	8.5550
142.40	8.5563
142.42	8.5579
142.43	8.5594
142.45	8.5607
142.47	8.5621
142.48	8.5635
142.50	8.5649
142.52	8.5661
142.54	8.5675
142.55	8.5688
142.57	8.5702
142.59	8.5716
142.60	8.5732
142.62	8.5746
142.63	8.5761
142.65	8.5774
142.67	8.5790
142.68	8.5803
142.70	8.5818
142.72	8.5832
142.74	8.5846
142.75	8.5858
142.77	8.5871
142.79	8.5887
142.80	8.5898
142.82	8.5915
142.84	8.5930
142.85	8.5945
142.87	8.5962
142.88	8.5977
142.90	8.5991
142.92	8.6006
142.93	8.6018
142.95	8.6030
142.97	8.6044
142.98	8.6059
143.00	8.6072
143.02	8.6086
143.04	8.6101
143.05	8.6116
143.07	8.6130
143.08	8.6146
143.10	8.6161
143.12	8.6177
143.13	8.6193
143.15	8.6207
143.17	8.6223
143.18	8.6236
143.20	8.6249
143.22	8.6266
143.24	8.6280
143.25	8.6293
143.27	8.6308
143.29	8.6322
143.30	8.6336
143.32	8.6351
143.34	8.6365
143.35	8.6378
143.37	8.6395
143.39	8.6411
143.40	8.6426
143.42	8.6442
143.44	8.6455
143.45	8.6470
143.47	8.6485
143.49	8.6499
143.50	8.6514
143.52	8.6527
143.54	8.6543
143.55	8.6556
143.58	8.6572
143.59	8.6589
143.60	8.6604
143.62	8.6619
143.64	8.6632
143.65	8.6647
143.67	8.6661
143.69	8.6677
143.70	8.6692
143.72	8.6707
143.74	8.6722
143.75	8.6736
143.77	8.6751
143.79	8.6763
143.80	8.6779
143.82	8.6795
143.84	8.6810
143.85	8.6827
143.87	8.6843
143.89	8.6859
143.90	8.6873
143.92	8.6889
143.94	8.6903
143.96	8.6917
143.97	8.6931
143.98	8.6946
144.00	8.6960
144.02	8.6974
144.04	8.6989
144.05	8.7006
144.07	8.7021
144.09	8.7036
144.10	8.7053
144.12	8.7069
144.14	8.7085
144.15	8.7098
144.17	8.7114
144.19	8.7129
144.20	8.7143
144.22	8.7157
144.24	8.7173
144.25	8.7188
144.27	8.7204
144.29	8.7220
144.30	8.7238
144.32	8.7251
144.34	8.7268
144.35	8.7284
144.37	8.7300
144.39	8.7315
144.40	8.7330
144.42	8.7345
144.44	8.7360
144.45	8.7374
144.47	8.7391
144.49	8.7407
144.51	8.7420
144.53	8.7436
144.54	8.7453
144.55	8.7466
144.57	8.7481
144.58	8.7497
144.60	8.7512
144.62	8.7528
144.64	8.7544
144.65	8.7560
144.67	8.7577
144.69	8.7593
144.70	8.7610
144.72	8.7627
144.74	8.7644
144.75	8.7659
144.77	8.7677
144.79	8.7694
144.80	8.7710
144.82	8.7724
144.83	8.7740
144.85	8.7756
144.87	8.7773
144.88	8.7788
144.90	8.7806
144.93	8.7823
144.94	8.7840
144.95	8.7856
144.97	8.7872
144.99	8.7889
145.00	8.7905
145.02	8.7922
145.04	8.7939
145.05	8.7954
145.07	8.7972
145.09	8.7988
145.10	8.8004
145.12	8.8021
145.13	8.8038
145.15	8.8053
145.17	8.8068
145.18	8.8084
145.20	8.8100
145.22	8.8115
145.24	8.8130
145.25	8.8146
145.27	8.8163
145.29	8.8176
145.30	8.8194
145.32	8.8210
145.33	8.8225
145.35	8.8241
145.37	8.8256
145.39	8.8272
145.40	8.8286
145.42	8.8300
145.44	8.8315
145.45	8.8331
145.47	8.8346
145.49	8.8362
145.50	8.8378
145.52	8.8396
145.54	8.8412
145.55	8.8425
145.57	8.8441
145.58	8.8458
145.60	8.8472
145.62	8.8488
145.64	8.8503
145.65	8.8516
145.67	8.8535
145.68	8.8551
145.70	8.8565
145.72	8.8583
145.74	8.8599
145.75	8.8615
145.77	8.8632
145.79	8.8647
145.80	8.8662
145.82	8.8679
145.83	8.8694
145.85	8.8710
145.87	8.8725
145.88	8.8742
145.90	8.8759
145.92	8.8777
145.93	8.8793
145.95	8.8809
145.97	8.8824
145.98	8.8838
146.00	8.8855
146.02	8.8870
146.03	8.8885
146.05	8.8901
146.07	8.8918
146.08	8.8935
146.10	8.8950
146.12	8.8967
146.13	8.8983
146.15	8.9000
146.17	8.9017
146.18	8.9031
146.20	8.9048
146.22	8.9063
146.23	8.9077
146.25	8.9093
146.27	8.9109
146.28	8.9127
146.30	8.9142
146.32	8.9159
146.34	8.9174
146.35	8.9191
146.37	8.9206
146.38	8.9221
146.39	8.9237
146.41	8.9254
146.43	8.9270
146.45	8.9284
146.47	8.9300
146.48	8.9315
146.50	8.9329
146.52	8.9344
146.53	8.9360
146.55	8.9375
146.57	8.9391
146.58	8.9406
146.60	8.9423
146.61	8.9436
146.63	8.9450
146.65	8.9464
146.67	8.9480
146.68	8.9495
146.69	8.9512
146.71	8.9528
146.73	8.9543
146.75	8.9560
146.77	8.9579
146.78	8.9594
146.80	8.9608
146.82	8.9623
146.83	8.9638
146.85	8.9655
146.87	8.9672
146.88	8.9688
146.90	8.9704
146.91	8.9722
146.93	8.9738
146.94	8.9758
146.97	8.9775
146.98	8.9792
147.00	8.9812
147.02	8.9830
147.03	8.9847
147.05	8.9863
147.06	8.9879
147.08	8.9898
147.10	8.9915
147.11	8.9933
147.13	8.9949
147.15	8.9968
147.17	8.9987
147.18	9.0004
147.20	9.0022
147.21	9.0040
147.23	9.0057
147.25	9.0075
147.26	9.0096
147.28	9.0112
147.30	9.0130
147.31	9.0146
147.33	9.0163
147.35	9.0180
147.37	9.0196
147.38	9.0209
147.40	9.0227
147.42	9.0244
147.43	9.0259
147.44	9.0277
147.47	9.0292
147.48	9.0307
147.50	9.0324
147.52	9.0342
147.53	9.0358
147.55	9.0376
147.57	9.0396
147.58	9.0414
147.60	9.0432
147.61	9.0450
147.63	9.0465
147.65	9.0484
147.67	9.0502
147.68	9.0519
147.70	9.0537
147.72	9.0556
147.73	9.0574
147.75	9.0593
147.77	9.0613
147.78	9.0629
147.80	9.0648
147.82	9.0667
147.83	9.0686
147.85	9.0705
147.86	9.0723
147.88	9.0741
147.90	9.0762
147.91	9.0781
147.93	9.0800
147.94	9.0820
147.96	9.0840
147.98	9.0858
148.00	9.0877
148.01	9.0894
148.03	9.0914
148.05	9.0931
148.07	9.0950
148.09	9.0968
148.10	9.0988
148.12	9.1009
148.13	9.1026
148.15	9.1045
148.17	9.1067
148.18	9.1087
148.19	9.1106
148.21	9.1125
148.23	9.1145
148.24	9.1164
148.26	9.1184
148.28	9.1202
148.30	9.1220
148.32	9.1240
148.33	9.1259
148.35	9.1281
148.36	9.1299
148.38	9.1316
148.40	9.1338
148.41	9.1357
148.43	9.1375
148.44	9.1394
148.47	9.1413
148.48	9.1431
148.50	9.1449
148.51	9.1469
148.53	9.1489
148.55	9.1508
148.56	9.1527
148.58	9.1547
148.60	9.1567
148.61	9.1588
148.63	9.1604
148.65	9.1623
148.66	9.1642
148.68	9.1660
148.69	9.1678
148.71	9.1698
148.73	9.1715
148.75	9.1733
148.76	9.1752
148.78	9.1770
148.80	9.1787
148.81	9.1804
148.83	9.1824
148.85	9.1842
148.86	9.1860
148.88	9.1877
148.90	9.1895
148.91	9.1915
148.93	9.1933
148.94	9.1952
148.96	9.1971
148.98	9.1989
149.00	9.2005
149.01	9.2023
149.03	9.2040
149.05	9.2057
149.06	9.2075
149.08	9.2089
149.09	9.2107
149.11	9.2123
149.13	9.2141
149.15	9.2159
149.16	9.2177
149.18	9.2194
149.19	9.2211
149.21	9.2228
149.23	9.2244
149.25	9.2259
149.26	9.2276
149.28	9.2293
149.29	9.2311
149.31	9.2326
149.33	9.2341
149.35	9.2359
149.36	9.2377
149.38	9.2394
149.39	9.2411
149.41	9.2428
149.43	9.2443
149.44	9.2460
149.46	9.2477
149.48	9.2494
149.50	9.2511
149.51	9.2529
149.53	9.2548
149.54	9.2566
149.56	9.2583
149.58	9.2599
149.59	9.2618
149.61	9.2635
149.63	9.2651
149.64	9.2667
149.66	9.2683
149.68	9.2699
149.69	9.2716
149.71	9.2733
149.73	9.2752
149.75	9.2769
149.77	9.2785
149.78	9.2804
149.80	9.2820
149.81	9.2838
149.83	9.2854
149.85	9.2872
149.86	9.2891
149.88	9.2909
149.89	9.2927
149.91	9.2943
149.93	9.2958
149.94	9.2977
149.96	9.2994
149.97	9.3012
150.00	9.3029
150.01	9.3047
150.03	9.3062
150.04	9.3081
150.06	9.3097
150.08	9.3114
150.10	9.3132
150.11	9.3147
150.13	9.3164
150.15	9.3181
150.16	9.3195
150.17	9.3212
150.19	9.3228
150.20	9.3243
150.22	9.3259
150.24	9.3276
150.26	9.3290
150.28	9.3304
150.29	9.3319
150.31	9.3330
150.33	9.3347
150.34	9.3361
150.36	9.3375
150.38	9.3389
150.39	9.3404
150.40	9.3417
150.43	9.3432
150.44	9.3447
150.46	9.3458
150.48	9.3473
150.49	9.3485
150.51	9.3499
150.53	9.3512
150.55	9.3524
150.56	9.3538
150.58	9.3554
150.59	9.3568
150.61	9.3582
150.63	9.3596
150.65	9.3610
150.66	9.3623
150.68	9.3637
150.69	9.3649
150.71	9.3664
150.72	9.3678
150.74	9.3693
150.76	9.3705
150.78	9.3720
150.79	9.3736
150.81	9.3748
150.82	9.3763
150.84	9.3776
150.86	9.3790
150.88	9.3805
150.90	9.3818
150.91	9.3832
150.93	9.3848
150.94	9.3863
150.96	9.3878
150.97	9.3891
150.99	9.3908
151.01	9.3921
151.03	9.3934
151.04	9.3949
151.06	9.3963
151.08	9.3980
151.09	9.3995
151.11	9.4010
151.13	9.4024
151.15	9.4038
151.16	9.4055
151.18	9.4071
151.19	9.4085
151.21	9.4101
151.22	9.4117
151.24	9.4133
151.25	9.4150
151.27	9.4163
151.29	9.4179
151.30	9.4191
151.32	9.4205
151.34	9.4220
151.36	9.4236
151.38	9.4250
151.39	9.4268
151.41	9.4282
151.43	9.4298
151.44	9.4313
151.46	9.4326
151.47	9.4341
151.49	9.4355
151.50	9.4369
151.52	9.4381
151.54	9.4394
151.55	9.4408
151.58	9.4423
151.59	9.4437
151.60	9.4451
151.62	9.4464
151.64	9.4477
151.66	9.4490
151.68	9.4501
151.69	9.4514
151.70	9.4526
151.72	9.4540
151.74	9.4552
151.75	9.4565
151.77	9.4577
151.79	9.4592
151.80	9.4606
151.83	9.4616
151.84	9.4631
151.85	9.4644
151.87	9.4659
151.89	9.4671
151.91	9.4682
151.92	9.4694
151.94	9.4707
151.95	9.4721
151.97	9.4733
151.99	9.4747
152.00	9.4762
152.02	9.4777
152.04	9.4791
152.05	9.4803
152.08	9.4815
152.09	9.4829
152.10	9.4841
152.13	9.4854
152.14	9.4868
152.15	9.4880
152.17	9.4895
152.19	9.4910
152.20	9.4923
152.22	9.4940
152.23	9.4955
152.25	9.4969
152.27	9.4984
152.29	9.4999
152.30	9.5010
152.32	9.5027
152.34	9.5040
152.36	9.5055
152.37	9.5073
152.38	9.5089
152.40	9.5104
152.42	9.5119
152.44	9.5135
152.45	9.5147
152.47	9.5163
152.49	9.5178
152.50	9.5195
152.52	9.5212
152.54	9.5228
152.55	9.5246
152.57	9.5263
152.59	9.5283
152.61	9.5300
152.63	9.5319
152.64	9.5337
152.65	9.5354
152.67	9.5373
152.68	9.5392
152.70	9.5412
152.72	9.5431
152.73	9.5449
152.75	9.5468
152.77	9.5488
152.79	9.5507
152.80	9.5526
152.82	9.5545
152.83	9.5564
152.85	9.5583
152.87	9.5601
152.88	9.5620
152.90	9.5635
152.92	9.5654
152.93	9.5673
152.95	9.5690
152.97	9.5709
152.98	9.5728
153.00	9.5747
153.02	9.5766
153.04	9.5783
153.05	9.5802
153.07	9.5820
153.08	9.5838
153.10	9.5856
153.12	9.5875
153.13	9.5894
153.15	9.5911
153.17	9.5933
153.18	9.5954
153.20	9.5973
153.22	9.5993
153.24	9.6012
153.25	9.6032
153.27	9.6050
153.29	9.6070
153.30	9.6088
153.32	9.6108
153.34	9.6129
153.35	9.6149
153.37	9.6169
153.39	9.6189
153.40	9.6211
153.42	9.6232
153.44	9.6253
153.45	9.6272
153.47	9.6294
153.48	9.6316
153.50	9.6335
153.52	9.6355
153.53	9.6377
153.55	9.6398
153.56	9.6419
153.58	9.6442
153.60	9.6462
153.62	9.6482
153.63	9.6504
153.65	9.6525
153.67	9.6547
153.68	9.6569
153.70	9.6591
153.72	9.6610
153.73	9.6630
153.75	9.6648
153.76	9.6672
153.78	9.6694
153.80	9.6714
153.82	9.6737
153.84	9.6761
153.85	9.6781
153.87	9.6802
153.88	9.6823
153.90	9.6846
153.92	9.6867
153.93	9.6889
153.95	9.6909
153.97	9.6932
153.98	9.6954
154.00	9.6976
154.01	9.6999
154.03	9.7021
154.05	9.7043
154.06	9.7066
154.08	9.7087
154.10	9.7109
154.12	9.7130
154.13	9.7152
154.15	9.7173
154.16	9.7195
154.18	9.7221
154.20	9.7243
154.22	9.7265
154.23	9.7290
154.25	9.7313
154.27	9.7337
154.28	9.7360
154.30	9.7382
154.31	9.7406
154.33	9.7428
154.35	9.7452
154.36	9.7475
154.38	9.7500
154.40	9.7526
154.42	9.7550
154.43	9.7574
154.45	9.7597
154.46	9.7622
154.48	9.7646
154.50	9.7669
154.52	9.7693
154.53	9.7716
154.55	9.7739
154.56	9.7762
154.58	9.7787
154.60	9.7813
154.62	9.7838
154.63	9.7862
154.65	9.7887
154.66	9.7912
154.68	9.7936
154.69	9.7958
154.71	9.7982
154.73	9.8008
154.75	9.8030
154.76	9.8052
154.78	9.8076
154.80	9.8102
154.81	9.8127
154.83	9.8150
154.84	9.8175
154.86	9.8199
154.88	9.8223
154.90	9.8248
154.91	9.8271
154.93	9.8296
154.95	9.8319
154.97	9.8344
154.98	9.8368
155.00	9.8390
155.01	9.8414
155.03	9.8438
155.04	9.8464
155.06	9.8488
155.08	9.8512
155.10	9.8535
155.11	9.8560
155.13	9.8583
155.14	9.8607
155.16	9.8631
155.18	9.8654
155.19	9.8680
155.21	9.8705
155.22	9.8732
155.25	9.8757
155.26	9.8781
155.28	9.8805
155.30	9.8830
155.31	9.8855
155.33	9.8879
155.34	9.8905
155.36	9.8931
155.38	9.8954
155.39	9.8979
155.41	9.9006
155.43	9.9029
155.44	9.9057
155.46	9.9082
155.47	9.9107
155.49	9.9131
155.51	9.9157
155.53	9.9182
155.55	9.9208
155.56	9.9233
155.58	9.9258
155.60	9.9285
155.61	9.9310
155.63	9.9334
155.65	9.9360
155.66	9.9385
155.68	9.9410
155.69	9.9434
155.71	9.9457
155.73	9.9482
155.74	9.9508
155.76	9.9532
155.78	9.9556
155.80	9.9582
155.81	9.9608
155.83	9.9633
155.85	9.9659
155.86	9.9684
155.88	9.9708
155.90	9.9735
155.91	9.9760
155.93	9.9784
155.94	9.9809
155.96	9.9832
155.98	9.9858
156.00	9.9883
156.01	9.9908
156.03	9.9935
156.05	9.9962
156.06	9.9987
156.08	10.0012
156.10	10.0039
156.11	10.0064
156.13	10.0089
156.14	10.0114
156.16	10.0140
156.18	10.0163
156.19	10.0189
156.21	10.0215
156.22	10.0242
156.24	10.0269
156.26	10.0296
156.27	10.0321
156.29	10.0347
156.31	10.0373
156.33	10.0397
156.35	10.0424
156.36	10.0451
156.38	10.0475
156.40	10.0502
156.41	10.0529
156.43	10.0556
156.44	10.0583
156.46	10.0612
156.48	10.0638
156.49	10.0667
156.51	10.0696
156.53	10.0723
156.55	10.0751
156.56	10.0778
156.58	10.0806
156.59	10.0834
156.61	10.0862
156.63	10.0890
156.64	10.0921
156.66	10.0951
156.68	10.0979
156.69	10.1008
156.71	10.1038
156.72	10.1067
156.75	10.1097
156.76	10.1128
156.78	10.1156
156.80	10.1189
156.81	10.1222
156.83	10.1253
156.85	10.1287
156.86	10.1319
156.87	10.1349
156.89	10.1381
156.91	10.1413
156.93	10.1444
156.94	10.1475
156.96	10.1505
156.98	10.1534
157.00	10.1565
157.01	10.1596
157.03	10.1627
157.05	10.1658
157.06	10.1690
157.08	10.1720
157.09	10.1750
157.11	10.1780
157.13	10.1809
157.14	10.1839
157.16	10.1869
157.18	10.1897
157.19	10.1927
157.21	10.1956
157.23	10.1985
157.25	10.2015
157.26	10.2043
157.28	10.2071
157.30	10.2099
157.31	10.2128
157.33	10.2158
157.34	10.2186
157.36	10.2214
157.38	10.2240
157.40	10.2270
157.41	10.2298
157.43	10.2326
157.44	10.2355
157.46	10.2385
157.47	10.2413
157.49	10.2441
157.51	10.2469
157.53	10.2493
157.54	10.2524
157.56	10.2553
157.58	10.2581
157.60	10.2608
157.61	10.2639
157.63	10.2667
157.64	10.2696
157.66	10.2726
157.68	10.2755
157.69	10.2784
157.71	10.2814
157.73	10.2844
157.74	10.2874
157.76	10.2904
157.78	10.2932
157.79	10.2961
157.81	10.2990
157.83	10.3019
157.84	10.3050
157.86	10.3079
157.88	10.3109
157.89	10.3139
157.91	10.3170
157.93	10.3198
157.94	10.3229
157.96	10.3259
157.97	10.3287
157.99	10.3317
158.01	10.3347
158.03	10.3377
158.05	10.3410
158.06	10.3439
158.08	10.3470
158.10	10.3501
158.11	10.3534
158.13	10.3564
158.15	10.3595
158.16	10.3628
158.18	10.3658
158.19	10.3688
158.20	10.3721
158.22	10.3753
158.25	10.3786
158.26	10.3817
158.28	10.3849
158.29	10.3880
158.30	10.3911
158.32	10.3942
158.34	10.3976
158.36	10.4007
158.38	10.4040
158.40	10.4072
158.41	10.4105
158.43	10.4137
158.44	10.4170
158.46	10.4202
158.47	10.4236
158.49	10.4270
158.50	10.4302
158.53	10.4334
158.55	10.4368
158.56	10.4402
158.58	10.4434
158.59	10.4469
158.61	10.4501
158.63	10.4535
158.64	10.4569
158.66	10.4604
158.68	10.4638
158.69	10.4674
158.71	10.4708
158.72	10.4743
158.74	10.4777
158.76	10.4812
158.78	10.4845
158.79	10.4880
158.80	10.4914
158.82	10.4948
158.84	10.4984
158.86	10.5022
158.88	10.5058
158.89	10.5092
158.90	10.5130
158.92	10.5165
158.94	10.5200
158.96	10.5237
158.97	10.5271
159.00	10.5305
159.01	10.5342
159.03	10.5377
159.04	10.5414
159.06	10.5453
159.08	10.5489
159.09	10.5524
159.11	10.5561
159.13	10.5598
159.14	10.5633
159.16	10.5669
159.18	10.5706
159.19	10.5741
159.21	10.5777
159.22	10.5814
159.24	10.5852
159.26	10.5890
159.28	10.5927
159.30	10.5964
159.31	10.6000
159.33	10.6036
159.34	10.6074
159.35	10.6112
159.37	10.6148
159.39	10.6186
159.40	10.6224
159.43	10.6261
159.44	10.6299
159.46	10.6337
159.48	10.6375
159.49	10.6413
159.51	10.6448
159.53	10.6487
159.54	10.6523
159.56	10.6561
159.58	10.6598
159.59	10.6637
159.61	10.6675
159.63	10.6714
159.64	10.6752
159.66	10.6792
159.68	10.6832
159.69	10.6871
159.71	10.6908
159.72	10.6947
159.74	10.6986
159.76	10.7024
159.78	10.7062
159.79	10.7101
159.80	10.7140
159.83	10.7179
159.84	10.7219
159.85	10.7260
159.87	10.7298
159.89	10.7337
159.90	10.7377
159.93	10.7418
159.94	10.7455
159.96	10.7495
159.97	10.7533
159.99	10.7573
160.01	10.7611
160.03	10.7652
160.04	10.7694
160.05	10.7735
160.07	10.7773
160.09	10.7815
160.11	10.7855
160.12	10.7896
160.14	10.7939
160.16	10.7979
160.17	10.8021
160.19	10.8062
160.21	10.8103
160.23	10.8147
160.24	10.8187
160.26	10.8230
160.28	10.8274
160.29	10.8316
160.31	10.8361
160.32	10.8405
160.34	10.8448
160.36	10.8489
160.37	10.8533
160.39	10.8577
160.40	10.8620
160.42	10.8664
160.44	10.8710
160.46	10.8754
160.47	10.8798
160.49	10.8844
160.50	10.8890
160.52	10.8933
160.54	10.8978
160.55	10.9023
160.58	10.9066
160.59	10.9112
160.61	10.9156
160.62	10.9199
160.64	10.9246
160.65	10.9290
160.67	10.9336
160.69	10.9382
160.70	10.9428
160.72	10.9475
160.74	10.9520
160.75	10.9562
160.77	10.9607
160.79	10.9652
160.80	10.9697
160.82	10.9741
160.83	10.9787
160.85	10.9831
160.87	10.9876
160.88	10.9923
160.90	10.9967
160.92	11.0013
160.94	11.0058
160.96	11.0104
160.97	11.0151
160.99	11.0197
161.00	11.0244
161.03	11.0291
161.04	11.0338
161.05	11.0385
161.07	11.0432
161.09	11.0479
161.10	11.0527
161.12	11.0576
161.14	11.0623
161.15	11.0671
161.17	11.0719
161.18	11.0767
161.20	11.0813
161.22	11.0861
161.24	11.0910
161.25	11.0959
161.27	11.1008
161.29	11.1056
161.30	11.1107
161.32	11.1156
161.34	11.1206
161.35	11.1256
161.37	11.1308
161.39	11.1359
161.40	11.1411
161.42	11.1461
161.44	11.1512
161.45	11.1562
161.47	11.1614
161.49	11.1670
161.50	11.1721
161.52	11.1773
161.54	11.1827
161.55	11.1878
161.57	11.1932
161.59	11.1986
161.60	11.2036
161.62	11.2094
161.64	11.2148
161.65	11.2202
161.67	11.2258
161.68	11.2314
161.70	11.2371
161.72	11.2427
161.74	11.2483
161.75	11.2540
161.77	11.2595
161.78	11.2650
161.80	11.2707
161.82	11.2763
161.83	11.2820
161.85	11.2875
161.87	11.2931
161.89	11.2991
161.90	11.3047
161.92	11.3105
161.93	11.3162
161.95	11.3218
161.97	11.3274
161.98	11.3333
162.00	11.3389
162.02	11.3447
162.03	11.3508
162.05	11.3566
162.07	11.3623
162.09	11.3684
162.10	11.3742
162.12	11.3802
162.13	11.3860
162.15	11.3917
162.17	11.3977
162.19	11.4036
162.20	11.4095
162.22	11.4155
162.24	11.4214
162.25	11.4275
162.26	11.4337
162.28	11.4400
162.30	11.4463
162.32	11.4528
162.34	11.4594
162.35	11.4660
162.37	11.4726
162.38	11.4792
162.40	11.4860
162.42	11.4927
162.43	11.4995
162.45	11.5063
162.47	11.5131
162.48	11.5199
162.50	11.5267
162.52	11.5336
162.53	11.5404
162.55	11.5469
162.57	11.5537
162.59	11.5603
162.60	11.5665
162.62	11.5732
162.63	11.5796
162.65	11.5862
162.67	11.5927
162.69	11.5993
162.70	11.6058
162.72	11.6125
162.73	11.6190
162.75	11.6253
162.77	11.6321
162.78	11.6386
162.80	11.6451
162.82	11.6516
162.83	11.6582
162.85	11.6647
162.86	11.6713
162.88	11.6779
162.90	11.6845
162.92	11.6911
162.94	11.6975
162.94	11.7039
162.96	11.7104
162.98	11.7168
163.00	11.7233
163.01	11.7299
163.03	11.7365
163.05	11.7432
163.06	11.7497
163.08	11.7565
163.10	11.7630
163.12	11.7699
163.13	11.7764
163.15	11.7832
163.17	11.7899
163.18	11.7967
163.19	11.8034
163.22	11.8102
163.23	11.8167
163.25	11.8235
163.27	11.8303
163.28	11.8370
163.30	11.8437
163.31	11.8505
163.33	11.8573
163.35	11.8641
163.36	11.8708
163.38	11.8780
163.40	11.8845
163.41	11.8915
163.43	11.8983
163.44	11.9052
163.47	11.9121
163.48	11.9190
163.50	11.9259
163.51	11.9327
163.53	11.9396
163.55	11.9465
163.57	11.9535
163.58	11.9604
163.60	11.9672
163.61	11.9741
163.63	11.9811
163.65	11.9879
163.67	11.9950
163.68	12.0022
163.69	12.0091
163.71	12.0163
163.73	12.0233
163.75	12.0303
163.76	12.0373
163.78	12.0442
163.80	12.0512
163.81	12.0582
163.83	12.0654
163.85	12.0724
163.87	12.0795
163.88	12.0865
163.90	12.0936
163.92	12.1007
163.93	12.1080
163.94	12.1150
163.97	12.1221
163.98	12.1291
164.00	12.1363
164.02	12.1435
164.03	12.1503
164.05	12.1577
164.06	12.1650
164.08	12.1722
164.10	12.1793
164.11	12.1865
164.13	12.1937
164.15	12.2007
164.16	12.2080
164.18	12.2154
164.19	12.2225
164.21	12.2299
164.23	12.2371
164.25	12.2442
164.26	12.2516
164.28	12.2587
164.30	12.2657
164.31	12.2730
164.33	12.2802
164.35	12.2874
164.36	12.2946
164.38	12.3017
164.40	12.3089
164.41	12.3160
164.43	12.3232
164.44	12.3303
164.46	12.3378
164.48	12.3450
164.50	12.3522
164.52	12.3594
164.53	12.3666
164.54	12.3738
164.56	12.3810
164.58	12.3880
164.60	12.3953
164.61	12.4025
164.63	12.4095
164.65	12.4167
164.66	12.4240
164.68	12.4313
164.69	12.4384
164.71	12.4457
164.73	12.4529
164.75	12.4600
164.76	12.4671
164.78	12.4744
164.80	12.4815
164.81	12.4886
164.83	12.4958
164.84	12.5029
164.86	12.5101
164.88	12.5174
164.90	12.5245
164.91	12.5316
164.93	12.5388
164.94	12.5459
164.96	12.5528
164.98	12.5597
165.00	12.5667
165.01	12.5738
165.03	12.5808
165.05	12.5880
165.06	12.5950
165.08	12.6020
165.10	12.6089
165.11	12.6160
165.13	12.6225
165.15	12.6293
165.16	12.6362
165.18	12.6429
165.19	12.6498
165.21	12.6565
165.23	12.6634
165.25	12.6700
165.26	12.6769
165.28	12.6837
165.29	12.6904
165.31	12.6970
165.33	12.7036
165.35	12.7103
165.36	12.7167
165.38	12.7234
165.40	12.7302
165.41	12.7369
165.43	12.7435
165.45	12.7500
165.46	12.7568
165.48	12.7635
165.50	12.7702
165.51	12.7771
165.53	12.7835
165.55	12.7901
165.56	12.7967
165.58	12.8033
165.60	12.8098
165.61	12.8165
165.63	12.8228
165.65	12.8294
165.66	12.8360
165.68	12.8424
165.69	12.8490
165.72	12.8554
165.73	12.8618
165.74	12.8680
165.76	12.8744
165.78	12.8807
165.80	12.8868
165.81	12.8933
165.83	12.8994
165.85	12.9058
165.86	12.9122
165.88	12.9184
165.89	12.9247
165.91	12.9311
165.93	12.9371
165.94	12.9432
165.97	12.9496
165.98	12.9555
166.00	12.9615
166.01	12.9676
166.03	12.9735
166.04	12.9798
166.06	12.9859
166.08	12.9920
166.10	12.9981
166.11	13.0041
166.13	13.0102
166.15	13.0162
166.16	13.0222
166.18	13.0281
166.20	13.0340
166.21	13.0399
166.23	13.0459
166.25	13.0516
166.26	13.0573
166.28	13.0631
166.29	13.0688
166.31	13.0744
166.33	13.0799
166.35	13.0857
166.36	13.0912
166.38	13.0966
166.39	13.1021
166.40	13.1075
166.43	13.1128
166.44	13.1182
166.46	13.1235
166.47	13.1288
166.49	13.1341
166.51	13.1395
166.53	13.1445
166.54	13.1497
166.56	13.1548
166.58	13.1598
166.60	13.1647
166.61	13.1696
166.63	13.1745
166.65	13.1795
166.66	13.1844
166.68	13.1893
166.69	13.1941
166.71	13.1989
166.73	13.2036
166.74	13.2084
166.76	13.2130
166.78	13.2176
166.80	13.2222
166.81	13.2269
166.83	13.2314
166.85	13.2360
166.87	13.2406
166.88	13.2451
166.90	13.2495
166.91	13.2540
166.93	13.2585
166.94	13.2628
166.96	13.2674
166.97	13.2716
166.99	13.2759
167.01	13.2800
167.03	13.2842
167.05	13.2885
167.06	13.2928
167.08	13.2971
167.10	13.3013
167.11	13.3056
167.13	13.3097
167.14	13.3139
167.16	13.3180
167.18	13.3222
167.19	13.3262
167.21	13.3301
167.22	13.3340
167.24	13.3380
167.26	13.3421
167.28	13.3458
167.29	13.3498
167.31	13.3537
167.33	13.3575
167.34	13.3612
167.36	13.3649
167.38	13.3685
167.40	13.3721
167.41	13.3757
167.43	13.3791
167.44	13.3828
167.46	13.3865
167.48	13.3900
167.50	13.3933
167.51	13.3967
167.53	13.4002
167.54	13.4035
167.56	13.4068
167.58	13.4098
167.59	13.4132
167.61	13.4162
167.63	13.4192
167.65	13.4223
167.66	13.4255
167.68	13.4282
167.69	13.4312
167.71	13.4342
167.72	13.4370
167.74	13.4400
167.76	13.4431
167.78	13.4458
167.79	13.4487
167.81	13.4514
167.83	13.4541
167.85	13.4570
167.86	13.4596
167.88	13.4623
167.89	13.4648
167.91	13.4676
167.93	13.4699
167.94	13.4724
167.96	13.4749
167.97	13.4771
167.99	13.4794
168.01	13.4816
168.03	13.4838
168.05	13.4859
168.06	13.4883
168.08	13.4903
168.09	13.4924
168.11	13.4944
168.13	13.4964
168.14	13.4983
168.16	13.5003
168.17	13.5020
168.19	13.5038
168.20	13.5056
168.22	13.5071
168.24	13.5087
168.26	13.5102
168.28	13.5117
168.29	13.5131
168.31	13.5146
168.33	13.5159
168.34	13.5172
168.36	13.5185
168.38	13.5199
168.40	13.5211
168.41	13.5222
168.43	13.5232
168.44	13.5243
168.46	13.5252
168.47	13.5261
168.49	13.5270
168.51	13.5278
168.53	13.5285
168.55	13.5293
168.56	13.5300
168.58	13.5305
168.59	13.5310
168.61	13.5316
168.63	13.5317
168.64	13.5321
168.66	13.5323
168.68	13.5323
168.69	13.5326
168.71	13.5328
168.73	13.5327
168.75	13.5326
168.76	13.5323
168.78	13.5320
168.79	13.5317
168.81	13.5313
168.83	13.5307
168.84	13.5303
168.86	13.5296
168.88	13.5289
168.89	13.5284
168.91	13.5276
168.93	13.5267
168.94	13.5258
168.96	13.5248
168.97	13.5238
169.00	13.5227
169.01	13.5216
169.03	13.5204
169.05	13.5190
169.06	13.5176
169.08	13.5161
169.09	13.5145
169.11	13.5127
169.13	13.5111
169.14	13.5094
169.16	13.5075
169.18	13.5055
169.19	13.5037
169.21	13.5014
169.22	13.4991
169.25	13.4967
169.26	13.4945
169.28	13.4918
169.30	13.4893
169.31	13.4868
169.33	13.4840
169.34	13.4812
169.36	13.4784
169.38	13.4755
169.40	13.4724
169.41	13.4693
169.43	13.4660
169.44	13.4626
169.46	13.4594
169.47	13.4560
169.50	13.4524
169.51	13.4488
169.53	13.4448
169.54	13.4411
169.56	13.4371
169.58	13.4329
169.59	13.4289
169.61	13.4246
169.63	13.4201
169.64	13.4160
169.66	13.4114
169.68	13.4068
169.69	13.4023
169.71	13.3976
169.72	13.3925
169.74	13.3875
169.76	13.3825
169.78	13.3772
169.79	13.3719
169.81	13.3665
169.83	13.3609
169.84	13.3552
169.86	13.3495
169.88	13.3437
169.89	13.3379
169.91	13.3319
169.93	13.3259
169.94	13.3196
169.96	13.3133
169.98	13.3070
170.00	13.3003
170.01	13.2934
170.03	13.2866
170.04	13.2797
170.06	13.2726
170.08	13.2654
170.09	13.2581
170.11	13.2509
170.13	13.2434
170.15	13.2359
170.16	13.2283
170.18	13.2204
170.19	13.2126
170.21	13.2043
170.22	13.1962
170.24	13.1880
170.26	13.1794
170.28	13.1711
170.29	13.1625
170.31	13.1539
170.33	13.1451
170.34	13.1362
170.36	13.1272
170.38	13.1182
170.40	13.1089
170.41	13.0994
170.43	13.0898
170.44	13.0801
170.47	13.0703
170.48	13.0605
170.50	13.0503
170.51	13.0401
170.53	13.0298
170.55	13.0193
170.57	13.0085
170.58	12.9979
170.59	12.9869
170.60	12.9760
170.63	12.9648
170.65	12.9535
170.66	12.9423
170.68	12.9311
170.69	12.9195
170.71	12.9080
170.73	12.8961
170.75	12.8842
170.76	12.8720
170.78	12.8598
170.80	12.8475
170.81	12.8352
170.83	12.8225
170.84	12.8098
170.86	12.7971
170.88	12.7842
170.89	12.7714
170.91	12.7583
170.93	12.7451
170.94	12.7316
170.96	12.7181
170.97	12.7043
171.00	12.6908
171.01	12.6768
171.03	12.6628
171.04	12.6488
171.06	12.6345
171.08	12.6205
171.10	12.6059
171.11	12.5914
171.13	12.5769
171.15	12.5620
171.16	12.5472
171.18	12.5323
171.19	12.5173
171.21	12.5023
171.23	12.4870
171.25	12.4716
171.26	12.4560
171.28	12.4407
171.30	12.4251
171.31	12.4095
171.33	12.3940
171.34	12.3782
171.36	12.3623
171.38	12.3464
171.39	12.3303
171.41	12.3142
171.43	12.2979
171.44	12.2817
171.46	12.2652
171.48	12.2488
171.50	12.2325
171.51	12.2158
171.53	12.1994
171.55	12.1829
171.56	12.1660
171.58	12.1494
171.60	12.1324
171.61	12.1156
171.63	12.0985
171.65	12.0817
171.66	12.0647
171.68	12.0479
171.69	12.0310
171.71	12.0141
171.73	11.9970
171.74	11.9801
171.76	11.9630
171.78	11.9461
171.80	11.9290
171.81	11.9119
171.83	11.8950
171.84	11.8783
171.86	11.8613
171.88	11.8446
171.90	11.8277
171.91	11.8110
171.93	11.7943
171.94	11.7778
171.96	11.7611
171.98	11.7445
172.00	11.7280
172.01	11.7113
172.03	11.6949
172.05	11.6785
172.06	11.6622
172.08	11.6461
172.09	11.6301
172.11	11.6141
172.13	11.5982
172.14	11.5822
172.16	11.5664
172.18	11.5508
172.19	11.5352
172.21	11.5195
172.22	11.5042
172.24	11.4889
172.26	11.4737
172.28	11.4587
172.30	11.4439
172.31	11.4289
172.33	11.4142
172.35	11.3995
172.36	11.3850
172.38	11.3705
172.40	11.3563
172.41	11.3421
172.43	11.3281
172.44	11.3142
172.46	11.3004
172.47	11.2868
172.49	11.2733
172.51	11.2601
172.53	11.2469
172.55	11.2338
172.56	11.2206
172.58	11.2079
172.60	11.1953
172.61	11.1825
172.63	11.1701
172.64	11.1579
172.66	11.1457
172.68	11.1340
172.69	11.1223
172.71	11.1104
172.73	11.0989
172.75	11.0876
172.77	11.0759
172.78	11.0649
172.80	11.0540
172.81	11.0430
172.83	11.0322
172.85	11.0216
172.86	11.0114
172.88	11.0012
172.89	10.9913
172.91	10.9815
172.93	10.9721
172.94	10.9630
172.96	10.9541
172.98	10.9455
172.99	10.9369
173.01	10.9287
173.03	10.9206
173.05	10.9130
173.06	10.9053
173.08	10.8979
173.09	10.8905
173.11	10.8831
173.13	10.8759
173.14	10.8687
173.16	10.8616
173.18	10.8547
173.19	10.8477
173.21	10.8409
173.23	10.8343
173.24	10.8274
173.26	10.8208
173.28	10.8142
173.29	10.8078
173.31	10.8012
173.33	10.7949
173.34	10.7886
173.36	10.7824
173.38	10.7763
173.40	10.7703
173.41	10.7644
173.43	10.7584
173.44	10.7527
173.46	10.7469
173.48	10.7414
173.50	10.7358
173.51	10.7302
173.53	10.7246
173.54	10.7194
173.56	10.7140
173.58	10.7089
173.59	10.7035
173.61	10.6984
173.63	10.6933
173.65	10.6882
173.66	10.6834
173.68	10.6785
173.69	10.6737
173.71	10.6689
173.72	10.6645
173.74	10.6600
173.76	10.6555
173.78	10.6512
173.79	10.6469
173.81	10.6427
173.83	10.6386
173.85	10.6348
173.86	10.6310
173.88	10.6273
173.89	10.6236
173.91	10.6200
173.93	10.6167
173.94	10.6132
173.96	10.6097
173.97	10.6066
174.00	10.6034
174.01	10.6001
174.02	10.5970
174.04	10.5943
174.06	10.5915
174.08	10.5889
174.10	10.5864
174.11	10.5837
174.13	10.5812
174.14	10.5787
174.16	10.5763
174.18	10.5737
174.19	10.5714
174.21	10.5693
174.22	10.5671
174.25	10.5650
174.26	10.5631
174.28	10.5613
174.29	10.5594
174.31	10.5576
174.33	10.5560
174.34	10.5545
174.36	10.5527
174.38	10.5512
174.39	10.5496
174.41	10.5480
174.43	10.5466
174.44	10.5452
174.46	10.5438
174.47	10.5425
174.49	10.5412
174.51	10.5399
174.53	10.5387
174.54	10.5375
174.56	10.5363
174.58	10.5355
174.60	10.5342
174.61	10.5332
174.63	10.5322
174.65	10.5314
174.66	10.5304
174.68	10.5296
174.69	10.5288
174.71	10.5280
174.73	10.5275
174.74	10.5267
174.76	10.5259
174.78	10.5253
174.80	10.5247
174.81	10.5239
174.83	10.5234
174.84	10.5228
174.86	10.5225
174.88	10.5223
174.89	10.5218
174.91	10.5215
174.93	10.5211
174.94	10.5209
174.96	10.5203
174.97	10.5199
174.99	10.5196
175.01	10.5192
175.03	10.5191
175.05	10.5189
175.06	10.5188
175.07	10.5187
175.09	10.5187
175.11	10.5186
175.13	10.5186
175.14	10.5187
175.16	10.5187
175.18	10.5188
175.19	10.5187
175.21	10.5189
175.22	10.5190
175.24	10.5190
175.26	10.5192
175.27	10.5195
175.29	10.5193
175.31	10.5194
175.33	10.5197
175.35	10.5200
175.36	10.5200
175.38	10.5206
175.40	10.5207
175.41	10.5213
175.43	10.5215
175.44	10.5218
175.46	10.5222
175.47	10.5225
175.49	10.5229
175.51	10.5234
175.53	10.5237
175.54	10.5240
175.56	10.5244
175.58	10.5248
175.59	10.5252
175.61	10.5256
175.63	10.5260
175.65	10.5264
175.66	10.5270
175.68	10.5277
175.69	10.5283
175.71	10.5288
175.73	10.5294
175.74	10.5299
175.76	10.5305
175.78	10.5311
175.79	10.5317
175.81	10.5323
175.83	10.5330
175.84	10.5340
175.86	10.5346
175.88	10.5355
175.89	10.5360
175.91	10.5370
175.93	10.5377
175.94	10.5384
175.96	10.5391
175.97	10.5398
175.99	10.5405
176.01	10.5414
176.03	10.5423
176.05	10.5430
176.06	10.5441
176.08	10.5450
176.10	10.5459
176.11	10.5468
176.13	10.5477
176.14	10.5484
176.16	10.5492
176.18	10.5503
176.19	10.5510
176.21	10.5519
176.22	10.5529
176.24	10.5538
176.26	10.5548
176.28	10.5557
176.30	10.5566
176.31	10.5578
176.33	10.5587
176.34	10.5596
176.36	10.5606
176.38	10.5617
176.40	10.5626
176.41	10.5637
176.43	10.5647
176.44	10.5657
176.46	10.5669
176.47	10.5679
176.49	10.5690
176.51	10.5701
176.53	10.5714
176.54	10.5723
176.56	10.5733
176.58	10.5744
176.59	10.5752
176.61	10.5763
176.63	10.5772
176.64	10.5781
176.66	10.5793
176.68	10.5803
176.69	10.5814
176.71	10.5823
176.72	10.5835
176.74	10.5846
176.76	10.5857
176.78	10.5869
176.79	10.5879
176.81	10.5892
176.83	10.5903
176.84	10.5914
176.86	10.5927
176.88	10.5938
176.89	10.5950
176.91	10.5960
176.93	10.5972
176.94	10.5982
176.96	10.5993
176.97	10.6004
176.99	10.6013
177.01	10.6024
177.03	10.6037
177.04	10.6049
177.06	10.6059
177.08	10.6072
177.10	10.6086
177.11	10.6095
177.13	10.6107
177.15	10.6116
177.16	10.6129
177.18	10.6139
177.19	10.6149
177.21	10.6161
177.22	10.6171
177.24	10.6181
177.26	10.6194
177.28	10.6204
177.30	10.6214
177.31	10.6226
177.33	10.6236
177.34	10.6249
177.35	10.6257
177.38	10.6270
177.39	10.6280
177.41	10.6290
177.43	10.6300
177.44	10.6310
177.46	10.6324
177.47	10.6334
177.49	10.6346
177.50	10.6356
177.53	10.6368
177.55	10.6377
177.56	10.6389
177.58	10.6400
177.59	10.6410
177.61	10.6422
177.63	10.6433
177.64	10.6445
177.66	10.6456
177.68	10.6470
177.69	10.6480
177.71	10.6492
177.72	10.6505
177.74	10.6515
177.76	10.6526
177.78	10.6538
177.79	10.6549
177.81	10.6559
177.83	10.6575
177.84	10.6584
177.86	10.6595
177.88	10.6610
177.89	10.6620
177.91	10.6635
177.93	10.6648
177.94	10.6659
177.96	10.6671
177.97	10.6683
177.99	10.6693
178.01	10.6706
178.03	10.6719
178.04	10.6732
178.06	10.6744
178.07	10.6759
178.09	10.6773
178.11	10.6785
178.13	10.6802
178.14	10.6813
178.16	10.6826
178.18	10.6840
178.19	10.6854
178.21	10.6868
178.22	10.6880
178.24	10.6894
178.26	10.6909
178.28	10.6923
178.29	10.6937
178.31	10.6951
178.33	10.6965
178.34	10.6978
178.36	10.6992
178.38	10.7006
178.40	10.7019
178.41	10.7034
178.43	10.7048
178.44	10.7062
178.45	10.7078
178.47	10.7090
178.49	10.7105
178.51	10.7120
178.53	10.7132
178.54	10.7146
178.55	10.7160
178.58	10.7173
178.59	10.7185
178.61	10.7197
178.63	10.7211
178.64	10.7222
178.65	10.7237
178.67	10.7250
178.69	10.7264
178.71	10.7278
178.72	10.7290
178.74	10.7303
178.76	10.7316
178.77	10.7328
178.79	10.7340
178.80	10.7352
178.83	10.7366
178.84	10.7378
178.86	10.7391
178.87	10.7404
178.89	10.7416
178.91	10.7428
178.93	10.7441
178.94	10.7451
178.96	10.7463
178.97	10.7473
178.99	10.7485
179.01	10.7497
179.02	10.7509
179.04	10.7521
179.06	10.7534
179.07	10.7547
179.09	10.7560
179.11	10.7569
179.13	10.7582
179.14	10.7593
179.15	10.7605
179.18	10.7618
179.19	10.7631
179.21	10.7643
179.23	10.7658
179.24	10.7670
179.25	10.7685
179.28	10.7695
179.29	10.7709
179.31	10.7723
179.33	10.7733
179.34	10.7746
179.36	10.7758
179.38	10.7769
179.39	10.7780
179.41	10.7790
179.43	10.7803
179.44	10.7815
179.46	10.7827
179.47	10.7839
179.49	10.7852
179.51	10.7864
179.53	10.7877
179.54	10.7887
179.56	10.7899
179.58	10.7912
179.59	10.7924
179.60	10.7937
179.62	10.7948
179.64	10.7961
179.66	10.7974
179.68	10.7987
179.69	10.8000
179.71	10.8013
179.72	10.8027
179.74	10.8038
179.75	10.8050
179.78	10.8061
179.79	10.8073
179.81	10.8085
179.83	10.8100
179.84	10.8114
179.85	10.8127
179.88	10.8139
179.89	10.8152
179.90	10.8166
179.92	10.8177
179.94	10.8190
179.96	10.8203
179.97	10.8214
179.99	10.8226
180.01	10.8240
180.03	10.8254
180.04	10.8268
180.05	10.8282
180.08	10.8295
180.09	10.8308
180.11	10.8321
180.12	10.8334
180.14	10.8348
180.15	10.8361
180.17	10.8376
180.19	10.8390
180.21	10.8404
180.22	10.8419
180.24	10.8432
180.26	10.8448
180.27	10.8461
180.29	10.8476
180.31	10.8490
180.32	10.8505
180.34	10.8518
180.36	10.8531
180.37	10.8541
180.39	10.8554
180.41	10.8569
180.42	10.8581
180.44	10.8595
180.46	10.8610
180.47	10.8625
180.49	10.8639
180.51	10.8654
180.52	10.8665
180.54	10.8680
180.56	10.8694
180.57	10.8705
180.59	10.8720
180.61	10.8733
180.62	10.8746
180.64	10.8760
180.65	10.8772
180.67	10.8785
180.69	10.8798
180.71	10.8811
180.72	10.8823
180.74	10.8838
180.75	10.8849
180.78	10.8863
180.79	10.8877
180.80	10.8890
180.83	10.8903
180.84	10.8916
180.86	10.8929
180.87	10.8942
180.89	10.8957
180.91	10.8971
180.92	10.8983
180.94	10.8996
180.96	10.9011
180.97	10.9024
180.99	10.9035
181.00	10.9045
181.02	10.9057
181.04	10.9071
181.06	10.9081
181.07	10.9093
181.09	10.9106
181.10	10.9117
181.13	10.9129
181.14	10.9142
181.15	10.9153
181.17	10.9166
181.19	10.9178
181.21	10.9189
181.22	10.9203
181.24	10.9217
181.26	10.9229
181.28	10.9242
181.29	10.9255
181.31	10.9269
181.32	10.9282
181.34	10.9294
181.35	10.9310
181.37	10.9322
181.39	10.9335
181.40	10.9350
181.42	10.9363
181.44	10.9378
181.45	10.9394
181.47	10.9409
181.49	10.9422
181.50	10.9438
181.52	10.9451
181.53	10.9466
181.55	10.9481
181.57	10.9492
181.59	10.9509
181.60	10.9524
181.62	10.9537
181.64	10.9554
181.65	10.9569
181.67	10.9585
181.69	10.9599
181.70	10.9614
181.72	10.9627
181.74	10.9642
181.75	10.9657
181.77	10.9669
181.79	10.9684
181.80	10.9699
181.82	10.9713
181.84	10.9729
181.85	10.9745
181.87	10.9759
181.89	10.9772
181.90	10.9785
181.92	10.9799
181.94	10.9813
181.95	10.9825
181.97	10.9839
181.99	10.9850
182.00	10.9863
182.02	10.9876
182.04	10.9888
182.05	10.9903
182.07	10.9916
182.09	10.9930
182.10	10.9944
182.12	10.9958
182.13	10.9969
182.15	10.9984
182.17	10.9996
182.19	11.0009
182.20	11.0024
182.22	11.0036
182.24	11.0050
182.25	11.0064
182.27	11.0077
182.28	11.0091
182.30	11.0107
182.32	11.0119
182.34	11.0131
182.35	11.0146
182.37	11.0158
182.38	11.0171
182.40	11.0185
182.42	11.0199
182.43	11.0212
182.45	11.0226
182.47	11.0240
182.48	11.0258
182.50	11.0270
182.52	11.0282
182.54	11.0296
182.55	11.0311
182.57	11.0324
182.59	11.0339
182.60	11.0353
182.62	11.0367
182.63	11.0382
182.65	11.0397
182.67	11.0412
182.68	11.0427
182.70	11.0438
182.72	11.0451
182.73	11.0464
182.75	11.0475
182.77	11.0487
182.78	11.0498
182.80	11.0512
182.82	11.0524
182.84	11.0539
182.85	11.0551
182.87	11.0563
182.89	11.0574
182.90	11.0588
182.93	11.0595
182.94	11.0609
182.95	11.0621
182.97	11.0633
182.99	11.0647
183.00	11.0661
183.02	11.0673
183.03	11.0687
183.05	11.0701
183.07	11.0714
183.08	11.0729
183.10	11.0741
183.12	11.0753
183.13	11.0767
183.15	11.0779
183.17	11.0794
183.18	11.0807
183.20	11.0820
183.22	11.0833
183.23	11.0848
183.25	11.0861
183.27	11.0874
183.28	11.0888
183.30	11.0900
183.32	11.0913
183.34	11.0927
183.35	11.0939
183.37	11.0953
183.38	11.0969
183.40	11.0982
183.42	11.0995
183.43	11.1007
183.45	11.1020
183.47	11.1035
183.48	11.1049
183.50	11.1061
183.52	11.1073
183.53	11.1085
183.55	11.1098
183.56	11.1109
183.58	11.1122
183.60	11.1134
183.62	11.1146
183.63	11.1159
183.65	11.1170
183.66	11.1181
183.68	11.1196
183.70	11.1208
183.72	11.1221
183.73	11.1233
183.75	11.1244
183.76	11.1256
183.78	11.1269
183.80	11.1280
183.82	11.1294
183.84	11.1308
183.85	11.1319
183.87	11.1330
183.88	11.1343
183.90	11.1355
183.91	11.1366
183.93	11.1380
183.95	11.1391
183.97	11.1403
183.98	11.1416
184.00	11.1429
184.02	11.1440
184.03	11.1458
184.05	11.1469
184.07	11.1482
184.08	11.1497
184.10	11.1509
184.12	11.1521
184.13	11.1534
184.15	11.1546
184.17	11.1559
184.18	11.1572
184.20	11.1585
184.22	11.1599
184.23	11.1614
184.25	11.1629
184.27	11.1641
184.28	11.1655
184.30	11.1668
184.32	11.1681
184.34	11.1694
184.35	11.1706
184.37	11.1717
184.38	11.1730
184.40	11.1743
184.42	11.1755
184.43	11.1770
184.44	11.1783
184.47	11.1797
184.48	11.1809
184.50	11.1822
184.52	11.1834
184.53	11.1847
184.55	11.1859
184.57	11.1871
184.58	11.1886
184.60	11.1898
184.62	11.1911
184.63	11.1925
184.65	11.1938
184.67	11.1951
184.68	11.1963
184.70	11.1977
184.72	11.1989
184.73	11.2001
184.75	11.2015
184.77	11.2027
184.79	11.2042
184.80	11.2055
184.82	11.2068
184.83	11.2085
184.85	11.2098
184.87	11.2113
184.88	11.2126
184.90	11.2141
184.92	11.2155
184.93	11.2168
184.95	11.2182
184.97	11.2196
184.98	11.2210
185.00	11.2225
185.02	11.2238
185.03	11.2253
185.05	11.2264
185.07	11.2278
185.08	11.2291
185.10	11.2305
185.12	11.2320
185.14	11.2332
185.15	11.2346
185.17	11.2359
185.19	11.2373
185.20	11.2386
185.22	11.2398
185.23	11.2411
185.25	11.2424
185.27	11.2437
185.28	11.2448
185.30	11.2460
185.32	11.2474
185.34	11.2487
185.35	11.2500
185.37	11.2513
185.38	11.2528
185.40	11.2540
185.42	11.2552
185.43	11.2565
185.45	11.2573
185.47	11.2584
185.48	11.2597
185.50	11.2608
185.52	11.2620
185.54	11.2634
185.55	11.2647
185.57	11.2663
185.59	11.2674
185.60	11.2688
185.62	11.2702
185.63	11.2716
185.65	11.2728
185.67	11.2744
185.68	11.2755
185.70	11.2768
185.72	11.2781
185.73	11.2794
185.75	11.2809
185.77	11.2823
185.79	11.2837
185.80	11.2849
185.82	11.2864
185.84	11.2879
185.85	11.2893
185.88	11.2907
185.89	11.2922
185.90	11.2934
185.92	11.2947
185.94	11.2963
185.95	11.2978
185.97	11.2993
185.99	11.3007
186.00	11.3022
186.02	11.3036
186.04	11.3048
186.05	11.3064
186.07	11.3075
186.08	11.3088
186.10	11.3102
186.12	11.3114
186.14	11.3128
186.15	11.3142
186.17	11.3154
186.19	11.3168
186.20	11.3180
186.22	11.3195
186.23	11.3207
186.25	11.3221
186.27	11.3233
186.28	11.3246
186.30	11.3258
186.32	11.3273
186.34	11.3285
186.35	11.3296
186.37	11.3311
186.39	11.3323
186.40	11.3335
186.42	11.3349
186.43	11.3362
186.45	11.3373
186.47	11.3386
186.49	11.3399
186.50	11.3412
186.52	11.3423
186.53	11.3436
186.55	11.3449
186.57	11.3464
186.58	11.3478
186.60	11.3492
186.62	11.3505
186.63	11.3518
186.65	11.3530
186.67	11.3543
186.69	11.3556
186.70	11.3570
186.72	11.3582
186.74	11.3596
186.76	11.3609
186.77	11.3624
186.79	11.3637
186.80	11.3650
186.82	11.3665
186.84	11.3679
186.85	11.3693
186.87	11.3707
186.89	11.3721
186.90	11.3732
186.92	11.3746
186.94	11.3759
186.95	11.3773
186.97	11.3787
186.99	11.3803
187.00	11.3817
187.02	11.3832
187.04	11.3845
187.05	11.3859
187.07	11.3873
187.09	11.3887
187.10	11.3899
187.12	11.3914
187.14	11.3928
187.15	11.3940
187.17	11.3953
187.19	11.3967
187.20	11.3979
187.22	11.3993
187.23	11.4007
187.25	11.4019
187.27	11.4032
187.29	11.4044
187.30	11.4058
187.32	11.4072
187.34	11.4084
187.35	11.4099
187.37	11.4113
187.39	11.4128
187.40	11.4141
187.42	11.4155
187.43	11.4169
187.45	11.4182
187.47	11.4195
187.49	11.4210
187.50	11.4221
187.52	11.4236
187.53	11.4251
187.55	11.4266
187.57	11.4279
187.58	11.4296
187.60	11.4308
187.63	11.4324
187.64	11.4338
187.65	11.4350
187.67	11.4365
187.68	11.4377
187.70	11.4389
187.72	11.4404
187.74	11.4418
187.75	11.4433
187.77	11.4446
187.78	11.4461
187.80	11.4474
187.82	11.4488
187.84	11.4501
187.85	11.4516
187.87	11.4528
187.88	11.4541
187.90	11.4555
187.92	11.4566
187.93	11.4581
187.95	11.4595
187.97	11.4609
187.98	11.4621
188.00	11.4634
188.02	11.4648
188.04	11.4661
188.05	11.4675
188.07	11.4687
188.09	11.4700
188.10	11.4711
188.12	11.4723
188.13	11.4735
188.15	11.4746
188.17	11.4760
188.18	11.4773
188.20	11.4785
188.22	11.4797
188.24	11.4809
188.25	11.4819
188.27	11.4832
188.29	11.4841
188.30	11.4853
188.32	11.4865
188.34	11.4875
188.35	11.4888
188.37	11.4902
188.38	11.4915
188.40	11.4926
188.42	11.4937
188.43	11.4952
188.45	11.4965
188.47	11.4976
188.49	11.4988
188.50	11.5001
188.52	11.5014
188.54	11.5026
188.56	11.5039
188.58	11.5053
188.59	11.5065
188.60	11.5080
188.62	11.5093
188.64	11.5107
188.65	11.5119
188.67	11.5131
188.69	11.5146
188.70	11.5159
188.72	11.5173
188.74	11.5188
188.75	11.5202
188.77	11.5218
188.79	11.5234
188.80	11.5248
188.82	11.5264
188.84	11.5277
188.85	11.5287
188.87	11.5303
188.88	11.5317
188.90	11.5329
188.92	11.5343
188.94	11.5356
188.95	11.5371
188.97	11.5385
188.99	11.5399
189.00	11.5413
189.02	11.5426
189.04	11.5442
189.05	11.5455
189.07	11.5467
189.08	11.5480
189.10	11.5494
189.12	11.5507
189.14	11.5519
189.15	11.5532
189.17	11.5545
189.18	11.5558
189.20	11.5572
189.22	11.5584
189.23	11.5599
189.25	11.5611
189.27	11.5626
189.28	11.5640
189.30	11.5654
189.32	11.5670
189.34	11.5684
189.35	11.5699
189.37	11.5715
189.38	11.5729
189.40	11.5743
189.42	11.5761
189.44	11.5774
189.45	11.5790
189.47	11.5805
189.49	11.5819
189.50	11.5835
189.52	11.5851
189.54	11.5866
189.55	11.5880
189.57	11.5897
189.58	11.5912
189.60	11.5925
189.62	11.5941
189.64	11.5956
189.65	11.5971
189.67	11.5986
189.69	11.6000
189.70	11.6014
189.72	11.6030
189.74	11.6046
189.75	11.6061
189.77	11.6077
189.79	11.6093
189.80	11.6106
189.82	11.6121
189.84	11.6136
189.85	11.6152
189.87	11.6166
189.88	11.6183
189.90	11.6196
189.92	11.6212
189.94	11.6228
189.95	11.6242
189.97	11.6259
189.99	11.6274
190.00	11.6287
190.02	11.6302
190.04	11.6315
190.05	11.6329
190.07	11.6341
190.09	11.6356
190.10	11.6369
190.12	11.6383
190.14	11.6398
190.15	11.6412
190.17	11.6428
190.18	11.6442
190.20	11.6457
190.22	11.6471
190.24	11.6485
190.25	11.6499
190.27	11.6510
190.28	11.6525
190.30	11.6538
190.32	11.6552
190.34	11.6567
190.35	11.6579
190.37	11.6593
190.38	11.6606
190.40	11.6619
190.42	11.6631
190.44	11.6643
190.45	11.6653
190.47	11.6668
190.49	11.6681
190.51	11.6694
190.52	11.6707
190.53	11.6719
190.55	11.6733
190.57	11.6747
190.59	11.6761
190.60	11.6775
190.62	11.6789
190.64	11.6800
190.65	11.6815
190.67	11.6829
190.69	11.6841
190.70	11.6855
190.72	11.6866
190.74	11.6880
190.75	11.6892
190.77	11.6905
190.79	11.6917
190.80	11.6929
190.82	11.6943
190.84	11.6955
190.85	11.6970
190.87	11.6983
190.89	11.6996
190.90	11.7010
190.92	11.7023
190.94	11.7037
190.95	11.7051
190.97	11.7063
190.99	11.7078
191.01	11.7088
191.03	11.7103
191.04	11.7113
191.06	11.7127
191.07	11.7138
191.09	11.7151
191.10	11.7165
191.12	11.7179
191.13	11.7195
191.15	11.7209
191.17	11.7225
191.19	11.7240
191.20	11.7254
191.22	11.7272
191.24	11.7284
191.25	11.7298
191.27	11.7311
191.29	11.7325
191.30	11.7338
191.32	11.7353
191.33	11.7369
191.35	11.7383
191.37	11.7400
191.39	11.7414
191.40	11.7429
191.42	11.7443
191.44	11.7457
191.45	11.7469
191.47	11.7483
191.49	11.7496
191.50	11.7511
191.53	11.7523
191.54	11.7539
191.55	11.7553
191.57	11.7566
191.58	11.7579
191.60	11.7592
191.62	11.7605
191.64	11.7620
191.65	11.7633
191.67	11.7645
191.69	11.7657
191.70	11.7673
191.72	11.7685
191.74	11.7699
191.75	11.7714
191.77	11.7729
191.79	11.7742
191.80	11.7755
191.82	11.7770
191.84	11.7782
191.85	11.7797
191.87	11.7810
191.88	11.7824
191.90	11.7838
191.92	11.7853
191.94	11.7866
191.95	11.7880
191.97	11.7895
191.99	11.7909
192.00	11.7921
192.02	11.7936
192.04	11.7949
192.05	11.7964
192.07	11.7980
192.09	11.7993
192.10	11.8008
192.12	11.8021
192.14	11.8035
192.15	11.8049
192.17	11.8063
192.19	11.8077
192.20	11.8089
192.22	11.8104
192.23	11.8115
192.25	11.8130
192.27	11.8141
192.29	11.8156
192.30	11.8170
192.32	11.8183
192.33	11.8198
192.35	11.8210
192.37	11.8225
192.38	11.8239
192.40	11.8253
192.42	11.8265
192.44	11.8277
192.45	11.8292
192.47	11.8307
192.49	11.8321
192.50	11.8333
192.52	11.8349
192.53	11.8363
192.55	11.8378
192.57	11.8394
192.59	11.8406
192.60	11.8419
192.62	11.8432
192.63	11.8446
192.65	11.8460
192.67	11.8472
192.68	11.8487
192.70	11.8501
192.72	11.8516
192.73	11.8530
192.75	11.8544
192.77	11.8558
192.79	11.8573
192.80	11.8587
192.82	11.8600
192.83	11.8612
192.85	11.8625
192.87	11.8640
192.89	11.8653
192.90	11.8669
192.92	11.8680
192.93	11.8695
192.95	11.8709
192.97	11.8723
192.99	11.8736
193.00	11.8751
193.02	11.8766
193.03	11.8777
193.05	11.8790
193.07	11.8801
193.09	11.8816
193.10	11.8830
193.12	11.8847
193.13	11.8860
193.15	11.8875
193.17	11.8890
193.18	11.8903
193.20	11.8917
193.22	11.8930
193.23	11.8942
193.25	11.8958
193.27	11.8971
193.29	11.8984
193.30	11.8997
193.32	11.9011
193.34	11.9024
193.35	11.9039
193.37	11.9050
193.39	11.9063
193.40	11.9079
193.42	11.9095
193.44	11.9107
193.45	11.9120
193.47	11.9137
193.49	11.9150
193.50	11.9163
193.52	11.9179
193.54	11.9192
193.55	11.9206
193.57	11.9221
193.59	11.9236
193.60	11.9251
193.62	11.9265
193.63	11.9281
193.65	11.9295
193.67	11.9311
193.69	11.9326
193.70	11.9340
193.72	11.9354
193.74	11.9367
193.75	11.9381
193.77	11.9395
193.79	11.9408
193.80	11.9421
193.82	11.9434
193.84	11.9449
193.85	11.9465
193.87	11.9479
193.89	11.9491
193.90	11.9508
193.92	11.9523
193.93	11.9539
193.95	11.9551
193.97	11.9567
193.99	11.9581
194.00	11.9596
194.02	11.9609
194.03	11.9622
194.05	11.9636
194.07	11.9651
194.09	11.9665
194.10	11.9679
194.12	11.9692
194.14	11.9704
194.15	11.9719
194.17	11.9734
194.19	11.9747
194.20	11.9760
194.22	11.9774
194.24	11.9786
194.25	11.9797
194.27	11.9810
194.29	11.9823
194.30	11.9838
194.32	11.9850
194.34	11.9863
194.35	11.9876
194.37	11.9888
194.39	11.9901
194.40	11.9913
194.42	11.9925
194.44	11.9939
194.45	11.9955
194.47	11.9967
194.49	11.9981
194.50	11.9996
194.52	12.0010
194.54	12.0023
194.55	12.0037
194.57	12.0049
194.59	12.0063
194.60	12.0074
194.62	12.0086
194.64	12.0100
194.66	12.0114
194.67	12.0129
194.69	12.0142
194.70	12.0158
194.72	12.0172
194.74	12.0185
194.75	12.0199
194.77	12.0213
194.79	12.0228
194.81	12.0242
194.82	12.0257
194.84	12.0270
194.86	12.0286
194.88	12.0298
194.89	12.0310
194.91	12.0322
194.92	12.0338
194.94	12.0349
194.95	12.0363
194.97	12.0377
194.99	12.0392
195.00	12.0406
195.02	12.0423
195.04	12.0436
195.05	12.0452
195.07	12.0470
195.09	12.0485
195.10	12.0499
195.12	12.0513
195.13	12.0528
195.15	12.0543
195.18	12.0556
195.19	12.0571
195.20	12.0586
195.22	12.0602
195.24	12.0619
195.25	12.0634
195.28	12.0649
195.29	12.0663
195.31	12.0680
195.33	12.0696
195.34	12.0711
195.35	12.0724
195.37	12.0739
195.39	12.0752
195.41	12.0767
195.42	12.0781
195.44	12.0795
195.45	12.0811
195.47	12.0828
195.49	12.0842
195.50	12.0857
195.52	12.0872
195.54	12.0885
195.55	12.0897
195.57	12.0910
195.59	12.0921
195.61	12.0938
195.62	12.0949
195.64	12.0963
195.66	12.0977
195.68	12.0991
195.69	12.1005
195.71	12.1020
195.72	12.1032
195.74	12.1047
195.76	12.1062
195.78	12.1074
195.79	12.1088
195.81	12.1101
195.82	12.1114
195.84	12.1129
195.86	12.1146
195.88	12.1158
195.89	12.1173
195.90	12.1188
195.93	12.1202
195.94	12.1215
195.95	12.1229
195.97	12.1243
195.99	12.1257
196.01	12.1270
196.03	12.1283
196.04	12.1300
196.06	12.1311
196.08	12.1325
196.09	12.1342
196.11	12.1355
196.13	12.1370
196.14	12.1384
196.16	12.1399
196.18	12.1411
196.19	12.1425
196.21	12.1439
196.22	12.1454
196.24	12.1467
196.26	12.1481
196.28	12.1495
196.29	12.1511
196.30	12.1525
196.32	12.1540
196.33	12.1554
196.35	12.1566
196.38	12.1580
196.39	12.1595
196.41	12.1608
196.43	12.1623
196.44	12.1635
196.45	12.1650
196.47	12.1664
196.49	12.1677
196.51	12.1689
196.53	12.1702
196.54	12.1717
196.55	12.1732
196.57	12.1746
196.59	12.1759
196.60	12.1773
196.62	12.1788
196.64	12.1803
196.65	12.1817
196.68	12.1831
196.69	12.1846
196.70	12.1860
196.72	12.1874
196.74	12.1889
196.76	12.1902
196.78	12.1915
196.79	12.1932
196.81	12.1947
196.82	12.1962
196.84	12.1978
196.86	12.1992
196.88	12.2005
196.89	12.2020
196.90	12.2034
196.92	12.2046
196.94	12.2061
196.96	12.2074
196.97	12.2090
196.99	12.2105
197.01	12.2120
197.02	12.2135
197.04	12.2150
197.06	12.2165
197.08	12.2180
197.09	12.2194
197.10	12.2207
197.12	12.2219
197.14	12.2235
197.16	12.2251
197.18	12.2265
197.19	12.2281
197.20	12.2297
197.22	12.2314
197.24	12.2329
197.26	12.2344
197.28	12.2359
197.29	12.2372
197.31	12.2387
197.32	12.2403
197.34	12.2416
197.36	12.2431
197.38	12.2446
197.39	12.2462
197.40	12.2477
197.43	12.2491
197.44	12.2506
197.45	12.2520
197.47	12.2536
197.49	12.2550
197.51	12.2564
197.53	12.2579
197.54	12.2594
197.56	12.2607
197.58	12.2621
197.59	12.2634
197.60	12.2650
197.63	12.2665
197.64	12.2678
197.66	12.2693
197.68	12.2709
197.69	12.2723
197.71	12.2737
197.72	12.2752
197.74	12.2764
197.75	12.2778
197.77	12.2793
197.79	12.2808
197.81	12.2823
197.83	12.2837
197.84	12.2853
197.86	12.2867
197.87	12.2880
197.89	12.2895
197.90	12.2909
197.93	12.2920
197.94	12.2934
197.96	12.2947
197.97	12.2962
197.99	12.2974
198.01	12.2988
198.02	12.3002
198.04	12.3016
198.06	12.3031
198.08	12.3042
198.09	12.3055
198.11	12.3069
198.13	12.3083
198.14	12.3096
198.15	12.3107
198.17	12.3122
198.19	12.3136
198.21	12.3152
198.22	12.3166
198.24	12.3182
198.25	12.3197
198.27	12.3210
198.29	12.3224
198.30	12.3241
198.32	12.3255
198.34	12.3273
198.35	12.3289
198.37	12.3303
198.39	12.3318
198.40	12.3333
198.43	12.3346
198.44	12.3361
198.46	12.3375
198.47	12.3391
198.49	12.3405
198.50	12.3421
198.52	12.3436
198.54	12.3451
198.56	12.3463
198.58	12.3478
198.59	12.3494
198.60	12.3509
198.62	12.3522
198.64	12.3536
198.66	12.3549
198.68	12.3562
198.69	12.3575
198.70	12.3590
198.72	12.3605
198.75	12.3619
198.76	12.3633
198.77	12.3645
198.79	12.3660
198.81	12.3675
198.82	12.3690
198.84	12.3704
198.86	12.3718
198.88	12.3730
198.89	12.3744
198.91	12.3758
198.93	12.3771
198.94	12.3785
198.95	12.3799
198.97	12.3815
198.99	12.3828
199.01	12.3844
199.03	12.3859
199.04	12.3871
199.06	12.3885
199.07	12.3897
199.09	12.3911
199.10	12.3924
199.12	12.3937
199.14	12.3950
199.15	12.3964
199.17	12.3978
199.19	12.3992
199.20	12.4005
199.22	12.4017
199.24	12.4032
199.25	12.4046
199.27	12.4059
199.29	12.4074
199.30	12.4086
199.32	12.4098
199.34	12.4111
199.35	12.4126
199.38	12.4141
199.39	12.4155
199.41	12.4170
199.42	12.4182
199.44	12.4196
199.46	12.4210
199.47	12.4222
199.49	12.4238
199.50	12.4251
199.52	12.4264
199.54	12.4278
199.55	12.4294
199.57	12.4307
199.59	12.4320
199.61	12.4334
199.62	12.4346
199.64	12.4360
199.65	12.4373
199.67	12.4384
199.68	12.4396
199.70	12.4408
199.72	12.4422
199.74	12.4437
199.75	12.4452
199.77	12.4465
199.79	12.4480
199.81	12.4495
199.82	12.4506
199.84	12.4520
199.85	12.4532
199.88	12.4547
199.89	12.4560
199.90	12.4575
199.92	12.4587
199.94	12.4603
199.96	12.4619
199.97	12.4631
199.99	12.4644
200.01	12.4658
200.03	12.4672
200.04	12.4687
200.05	12.4700
200.07	12.4713
200.09	12.4727
200.10	12.4741
200.12	12.4755
