Filename:	D:\TGAdata\„∆√ŒœÈ\20150506\20%5mm.pdid

Temperature (°„C)	Heat Flow Endo Up (mW)
24.30	9.0603
24.20	9.8726
24.10	9.7697
24.00	9.6088
23.89	9.3940
23.79	9.1418
23.69	8.8692
23.58	8.5908
23.49	8.3169
23.38	8.4482
23.28	9.2423
23.18	9.1224
23.08	8.9451
22.98	8.7156
22.88	8.4496
22.78	8.1641
22.68	7.8735
22.57	7.5884
22.48	7.3152
22.38	7.0597
22.28	6.8242
22.18	6.6110
22.07	6.4201
21.98	6.2512
21.87	6.1030
21.78	5.9738
21.68	5.8614
21.58	5.7645
21.48	5.6804
21.38	5.6070
21.28	5.5425
21.18	5.4847
21.08	5.4320
20.99	5.3827
20.89	5.3350
20.79	5.2882
20.69	5.2407
20.59	5.1920
20.50	5.1411
20.40	5.0875
20.30	5.0307
20.20	4.9707
20.11	4.9069
20.01	4.8395
19.91	4.7685
19.81	4.6933
19.72	4.6152
19.63	4.5334
19.53	4.4481
19.43	4.3601
19.34	4.2696
19.24	4.1769
19.14	4.0824
19.05	3.9864
18.95	3.8890
18.85	3.7906
18.75	3.6915
18.66	3.5922
18.57	3.4927
18.48	3.3934
18.38	3.2943
18.29	3.1964
18.19	3.0991
18.09	3.0037
18.00	2.9091
17.90	2.8157
17.81	2.7236
17.72	2.6336
17.62	2.5455
17.53	2.4585
17.43	2.3742
17.34	2.2920
17.25	2.2115
17.15	2.1334
17.06	2.0568
16.97	1.9831
16.88	1.9113
16.78	1.8409
16.69	1.7728
16.59	1.7067
16.50	1.6430
16.41	1.5807
16.32	1.5206
16.23	1.4622
16.14	1.4059
16.05	1.3510
15.95	1.2974
15.86	1.2458
15.77	1.1956
15.68	1.1468
15.58	1.0992
15.49	1.0536
15.40	1.0091
15.31	0.9667
15.22	0.9246
15.13	0.8844
15.03	0.8450
14.94	0.8064
14.85	0.7687
14.76	0.7317
14.68	0.6959
14.58	0.6614
14.49	0.6272
14.40	0.5945
14.31	0.5623
14.23	0.5307
14.13	0.4943
14.05	0.3600
13.95	-0.0184
13.86	-0.6551
13.78	-1.4985
13.69	-2.4841
13.60	-3.5588
13.52	-4.6809
13.44	-5.8184
13.36	-6.9484
13.28	-8.0538
13.21	-9.1220
13.14	-10.1430
13.08	-11.1095
13.02	-12.0154
12.95	-12.8575
12.90	-13.6333
12.85	-14.3418
12.80	-14.9834
12.76	-15.5589
12.72	-16.0685
12.68	-16.5148
12.65	-16.9012
12.63	-17.2301
12.60	-17.5066
12.58	-17.7333
12.56	-17.9132
12.54	-18.0520
12.53	-18.1523
12.51	-18.2176
12.51	-18.2525
12.50	-18.2590
12.49	-18.2408
12.49	-18.2010
12.48	-18.1416
12.48	-18.0651
12.48	-17.9749
12.48	-17.8710
12.48	-17.7563
12.49	-17.6315
12.50	-17.4982
12.50	-17.3571
12.50	-17.2100
12.51	-17.0570
12.52	-16.8986
12.53	-16.7357
12.54	-16.5689
12.55	-16.3984
12.55	-16.2239
12.57	-16.0460
12.58	-15.8657
12.59	-15.6820
12.60	-15.4962
12.61	-15.3079
12.62	-15.1175
12.64	-14.9247
12.65	-14.7295
12.66	-14.5333
12.68	-14.3355
12.69	-14.1357
12.70	-13.9345
12.72	-13.7315
12.73	-13.5270
12.74	-13.3211
12.76	-13.1138
12.77	-12.9054
12.79	-12.6957
12.80	-12.4851
12.82	-12.2740
12.83	-12.0621
12.85	-11.8494
12.86	-11.6356
12.88	-11.4216
12.89	-11.2074
12.91	-10.9935
12.92	-10.7796
12.93	-10.5658
12.95	-10.3525
12.97	-10.1400
12.98	-9.9279
12.99	-9.7164
13.00	-9.5052
13.02	-9.2951
13.04	-9.0861
13.06	-8.8784
13.08	-8.6719
13.09	-8.4669
13.10	-8.2634
13.13	-8.0614
13.14	-7.8609
13.15	-7.6615
13.17	-7.4640
13.18	-7.2682
13.20	-7.0744
13.22	-6.8824
13.24	-6.6925
13.25	-6.5052
13.27	-6.3200
13.28	-6.1371
13.30	-5.9566
13.31	-5.7786
13.33	-5.6031
13.34	-5.4297
13.36	-5.2588
13.38	-5.0902
13.39	-4.9240
13.40	-4.7603
13.42	-4.5992
13.44	-4.4401
13.46	-4.2838
13.47	-4.1298
13.49	-3.9784
13.51	-3.8293
13.53	-3.6827
13.54	-3.5383
13.55	-3.3965
13.57	-3.2571
13.58	-3.1203
13.60	-2.9856
13.62	-2.8536
13.64	-2.7238
13.65	-2.5961
13.67	-2.4709
13.69	-2.3481
13.70	-2.2274
13.72	-2.1092
13.74	-1.9931
13.75	-1.8793
13.77	-1.7677
13.79	-1.6585
13.80	-1.5508
13.82	-1.4452
13.83	-1.3415
13.85	-1.2401
13.87	-1.1408
13.89	-1.0435
13.90	-0.9482
13.92	-0.8551
13.93	-0.7640
13.95	-0.6745
13.97	-0.5868
13.98	-0.5010
14.00	-0.4171
14.02	-0.3348
14.03	-0.2545
14.05	-0.1759
14.07	-0.0992
14.08	-0.0239
14.10	0.0499
14.12	0.1221
14.13	0.1927
14.15	0.2618
14.17	0.3296
14.18	0.3960
14.20	0.4610
14.22	0.5244
14.23	0.5862
14.25	0.6466
14.27	0.7056
14.28	0.7637
14.30	0.8201
14.32	0.8755
14.33	0.9297
14.35	0.9827
14.37	1.0347
14.38	1.0851
14.40	1.1347
14.41	1.1828
14.43	1.2301
14.45	1.2762
14.47	1.3211
14.48	1.3655
14.50	1.4088
14.51	1.4513
14.53	1.4928
14.55	1.5333
14.56	1.5728
14.58	1.6114
14.59	1.6490
14.62	1.6860
14.63	1.7215
14.65	1.7565
14.66	1.7907
14.68	1.8241
14.70	1.8568
14.72	1.8887
14.73	1.9200
14.75	1.9503
14.76	1.9800
14.78	2.0091
14.80	2.0374
14.81	2.0652
14.83	2.0922
14.85	2.1186
14.87	2.1441
14.88	2.1695
14.89	2.1940
14.91	2.2180
14.93	2.2414
14.95	2.2644
14.96	2.2866
14.98	2.3085
15.00	2.3297
15.02	2.3507
15.03	2.3709
15.05	2.3906
15.06	2.4101
15.08	2.4290
15.10	2.4473
15.11	2.4653
15.13	2.4828
15.15	2.5000
15.16	2.5171
15.18	2.5336
15.20	2.5500
15.22	2.5659
15.23	2.5812
15.25	2.5961
15.27	2.6107
15.28	2.6249
15.30	2.6388
15.31	2.6524
15.33	2.6656
15.35	2.6785
15.36	2.6912
15.38	2.7036
15.40	2.7155
15.41	2.7272
15.43	2.7387
15.45	2.7499
15.46	2.7607
15.48	2.7712
15.50	2.7818
15.51	2.7921
15.53	2.8020
15.55	2.8116
15.56	2.8211
15.58	2.8305
15.60	2.8396
15.61	2.8485
15.63	2.8571
15.65	2.8656
15.66	2.8741
15.68	2.8821
15.70	2.8901
15.71	2.8979
15.73	2.9053
15.75	2.9126
15.76	2.9194
15.78	2.9263
15.80	2.9330
15.81	2.9397
15.83	2.9464
15.85	2.9530
15.87	2.9595
15.88	2.9659
15.90	2.9723
15.91	2.9783
15.93	2.9839
15.95	2.9896
15.96	2.9950
15.98	3.0003
16.00	3.0056
16.01	3.0107
16.03	3.0156
16.05	3.0205
16.07	3.0252
16.08	3.0297
16.09	3.0341
16.11	3.0386
16.13	3.0427
16.15	3.0470
16.17	3.0513
16.18	3.0555
16.20	3.0596
16.21	3.0636
16.23	3.0672
16.25	3.0712
16.26	3.0747
16.28	3.0780
16.30	3.0814
16.31	3.0848
16.33	3.0881
16.35	3.0914
16.37	3.0948
16.38	3.0977
16.40	3.1010
16.42	3.1039
16.43	3.1067
16.45	3.1094
16.46	3.1121
16.48	3.1148
16.49	3.1175
16.51	3.1204
16.53	3.1232
16.54	3.1259
16.56	3.1285
16.58	3.1310
16.59	3.1335
16.61	3.1360
16.63	3.1383
16.65	3.1405
16.67	3.1428
16.68	3.1449
16.70	3.1471
16.71	3.1490
16.73	3.1508
16.75	3.1528
16.77	3.1550
16.78	3.1567
16.79	3.1583
16.81	3.1601
16.83	3.1618
16.84	3.1636
16.86	3.1653
16.88	3.1671
16.89	3.1687
16.91	3.1705
16.93	3.1719
16.95	3.1735
16.97	3.1753
16.98	3.1768
17.00	3.1783
17.01	3.1798
17.03	3.1813
17.05	3.1830
17.07	3.1846
17.08	3.1861
17.10	3.1876
17.12	3.1891
17.13	3.1903
17.15	3.1918
17.17	3.1932
17.18	3.1946
17.20	3.1959
17.21	3.1970
17.23	3.1981
17.25	3.1995
17.26	3.2006
17.28	3.2016
17.30	3.2027
17.32	3.2037
17.33	3.2049
17.34	3.2061
17.36	3.2074
17.38	3.2084
17.40	3.2098
17.42	3.2110
17.43	3.2121
17.45	3.2130
17.46	3.2139
17.48	3.2148
17.50	3.2159
17.51	3.2171
17.53	3.2181
17.54	3.2190
17.56	3.2199
17.58	3.2208
17.59	3.2218
17.61	3.2225
17.63	3.2233
17.65	3.2242
17.66	3.2250
17.68	3.2258
17.70	3.2266
17.71	3.2274
17.73	3.2284
17.75	3.2290
17.77	3.2298
17.78	3.2306
17.79	3.2316
17.81	3.2325
17.83	3.2334
17.84	3.2343
17.86	3.2350
17.88	3.2360
17.89	3.2370
17.91	3.2376
17.93	3.2383
17.95	3.2389
17.96	3.2396
17.98	3.2403
18.00	3.2409
18.01	3.2417
18.03	3.2423
18.05	3.2431
18.06	3.2436
18.07	3.2443
18.09	3.2449
18.11	3.2452
18.13	3.2457
18.15	3.2464
18.17	3.2473
18.18	3.2481
18.20	3.2487
18.21	3.2494
18.23	3.2501
18.25	3.2508
18.26	3.2515
18.28	3.2520
18.30	3.2525
18.31	3.2531
18.33	3.2536
18.34	3.2543
18.36	3.2547
18.38	3.2555
18.40	3.2560
18.41	3.2564
18.43	3.2567
18.45	3.2571
18.46	3.2576
18.48	3.2581
18.50	3.2587
18.51	3.2592
18.53	3.2600
18.55	3.2608
18.56	3.2612
18.58	3.2619
18.60	3.2626
18.61	3.2630
18.63	3.2634
18.65	3.2639
18.66	3.2643
18.68	3.2648
18.70	3.2651
18.72	3.2654
18.73	3.2658
18.75	3.2663
18.76	3.2665
18.78	3.2669
18.80	3.2674
18.82	3.2678
18.83	3.2684
18.84	3.2688
18.86	3.2692
18.88	3.2698
18.89	3.2704
18.91	3.2709
18.93	3.2714
18.94	3.2719
18.96	3.2724
18.98	3.2729
19.00	3.2732
19.01	3.2737
19.03	3.2741
19.04	3.2744
19.06	3.2750
19.08	3.2752
19.09	3.2755
19.11	3.2758
19.13	3.2762
19.15	3.2766
19.16	3.2770
19.18	3.2775
19.20	3.2778
19.21	3.2782
19.23	3.2786
19.24	3.2790
19.26	3.2794
19.28	3.2800
19.30	3.2805
19.32	3.2810
19.33	3.2814
19.34	3.2818
19.36	3.2825
19.38	3.2828
19.39	3.2831
19.40	3.2835
19.43	3.2838
19.44	3.2843
19.46	3.2845
19.48	3.2849
19.49	3.2854
19.51	3.2855
19.53	3.2858
19.54	3.2861
19.56	3.2865
19.57	3.2868
19.59	3.2869
19.61	3.2874
19.62	3.2880
19.64	3.2886
19.65	3.2892
19.68	3.2897
19.69	3.2902
19.71	3.2908
19.72	3.2913
19.74	3.2917
19.75	3.2921
19.77	3.2926
19.79	3.2929
19.81	3.2932
19.82	3.2936
19.84	3.2942
19.86	3.2945
19.88	3.2949
19.89	3.2954
19.90	3.2958
19.92	3.2960
19.95	3.2963
19.96	3.2966
19.98	3.2971
19.99	3.2974
20.01	3.2980
20.02	3.2987
20.04	3.2993
20.06	3.2999
20.07	3.3002
20.09	3.3007
20.11	3.3011
20.13	3.3015
20.15	3.3017
20.16	3.3023
20.17	3.3025
20.19	3.3031
20.20	3.3032
20.22	3.3038
20.24	3.3041
20.26	3.3044
20.28	3.3046
20.29	3.3050
20.30	3.3052
20.32	3.3055
20.34	3.3061
20.36	3.3066
20.37	3.3071
20.39	3.3077
20.40	3.3083
20.42	3.3088
20.44	3.3095
20.46	3.3101
20.47	3.3106
20.49	3.3111
20.51	3.3116
20.53	3.3119
20.54	3.3122
20.56	3.3124
20.57	3.3127
20.59	3.3130
20.61	3.3134
20.63	3.3136
20.64	3.3140
20.66	3.3144
20.68	3.3147
20.69	3.3151
20.71	3.3155
20.72	3.3161
20.74	3.3165
20.75	3.3169
20.77	3.3174
20.79	3.3180
20.81	3.3183
20.82	3.3189
20.84	3.3196
20.85	3.3198
20.88	3.3202
20.89	3.3208
20.90	3.3212
20.92	3.3216
20.94	3.3220
20.96	3.3223
20.98	3.3226
20.99	3.3230
21.00	3.3233
21.02	3.3237
21.04	3.3243
21.05	3.3245
21.07	3.3249
21.09	3.3253
21.11	3.3259
21.12	3.3266
21.14	3.3271
21.15	3.3275
21.17	3.3281
21.19	3.3285
21.20	3.3290
21.23	3.3295
21.24	3.3300
21.25	3.3303
21.27	3.3306
21.29	3.3310
21.30	3.3314
21.32	3.3317
21.33	3.3321
21.35	3.3326
21.37	3.3329
21.39	3.3333
21.40	3.3335
21.42	3.3339
21.44	3.3343
21.45	3.3346
21.47	3.3350
21.49	3.3357
21.50	3.3363
21.52	3.3369
21.54	3.3373
21.55	3.3377
21.57	3.3383
21.58	3.3388
21.60	3.3390
21.62	3.3395
21.63	3.3400
21.65	3.3404
21.67	3.3407
21.68	3.3411
21.70	3.3413
21.72	3.3417
21.74	3.3422
21.75	3.3424
21.77	3.3429
21.78	3.3432
21.80	3.3436
21.82	3.3443
21.83	3.3450
21.85	3.3454
21.87	3.3461
21.89	3.3468
21.91	3.3472
21.92	3.3476
21.93	3.3482
21.95	3.3486
21.97	3.3490
21.99	3.3497
22.00	3.3501
22.02	3.3505
22.04	3.3511
22.05	3.3513
22.07	3.3518
22.08	3.3521
22.10	3.3525
22.12	3.3527
22.14	3.3533
22.15	3.3535
22.17	3.3542
22.19	3.3550
22.20	3.3555
22.22	3.3562
22.24	3.3569
22.25	3.3572
22.27	3.3576
22.28	3.3581
22.30	3.3585
22.32	3.3590
22.33	3.3596
22.35	3.3601
22.37	3.3606
22.38	3.3612
22.40	3.3615
22.41	3.3617
22.43	3.3621
22.45	3.3623
22.47	3.3625
22.49	3.3632
22.50	3.3635
22.52	3.3638
22.53	3.3641
22.55	3.3647
22.57	3.3656
22.58	3.3659
22.60	3.3663
22.62	3.3669
22.63	3.3671
22.65	3.3676
22.67	3.3683
22.68	3.3685
22.70	3.3688
22.71	3.3692
22.73	3.3694
22.75	3.3697
22.77	3.3700
22.78	3.3702
22.80	3.3704
22.82	3.3707
22.84	3.3712
22.85	3.3716
22.87	3.3719
22.88	3.3723
22.90	3.3728
22.91	3.3734
22.93	3.3737
22.95	3.3745
22.97	3.3751
22.98	3.3755
23.00	3.3762
23.02	3.3766
23.03	3.3769
23.05	3.3774
23.06	3.3778
23.08	3.3782
23.09	3.3785
23.11	3.3788
23.13	3.3790
23.15	3.3794
23.16	3.3797
23.18	3.3801
23.20	3.3804
23.21	3.3807
23.23	3.3811
23.25	3.3815
23.27	3.3818
23.28	3.3824
23.30	3.3830
23.32	3.3835
23.33	3.3843
23.34	3.3849
23.37	3.3854
23.38	3.3859
23.40	3.3864
23.41	3.3867
23.43	3.3874
23.45	3.3879
23.46	3.3881
23.48	3.3885
23.50	3.3889
23.51	3.3891
23.53	3.3895
23.55	3.3899
23.56	3.3903
23.58	3.3906
23.59	3.3910
23.62	3.3915
23.63	3.3919
23.65	3.3927
23.66	3.3934
23.68	3.3940
23.70	3.3946
23.72	3.3952
23.73	3.3958
23.74	3.3961
23.76	3.3963
23.78	3.3968
23.80	3.3972
23.82	3.3978
23.83	3.3981
23.85	3.3987
23.87	3.3992
23.88	3.3995
23.89	3.3998
23.91	3.4001
23.93	3.4005
23.95	3.4010
23.96	3.4011
23.98	3.4017
24.00	3.4023
24.02	3.4029
24.03	3.4034
24.05	3.4040
24.06	3.4047
24.08	3.4053
24.09	3.4056
24.11	3.4062
24.12	3.4066
24.14	3.4070
24.16	3.4075
24.18	3.4077
24.20	3.4081
24.21	3.4087
24.23	3.4090
24.24	3.4093
24.26	3.4095
24.28	3.4098
24.29	3.4103
24.31	3.4106
24.33	3.4108
24.34	3.4113
24.36	3.4118
24.38	3.4125
24.39	3.4128
24.40	3.4134
24.43	3.4140
24.45	3.4144
24.46	3.4149
24.48	3.4153
24.50	3.4156
24.51	3.4161
24.53	3.4165
24.54	3.4167
24.56	3.4171
24.58	3.4173
24.59	3.4176
24.61	3.4180
24.63	3.4183
24.64	3.4188
24.65	3.4191
24.67	3.4195
24.69	3.4198
24.71	3.4203
24.73	3.4209
24.75	3.4214
24.76	3.4219
24.78	3.4223
24.80	3.4229
24.81	3.4234
24.83	3.4236
24.84	3.4240
24.86	3.4246
24.88	3.4250
24.90	3.4252
24.91	3.4257
24.93	3.4258
24.94	3.4265
24.96	3.4268
24.98	3.4273
24.99	3.4278
25.01	3.4282
25.03	3.4285
25.04	3.4288
25.06	3.4291
25.07	3.4297
25.09	3.4302
25.11	3.4308
25.13	3.4313
25.14	3.4319
25.16	3.4325
25.18	3.4328
25.19	3.4332
25.21	3.4337
25.23	3.4339
25.24	3.4345
25.26	3.4348
25.28	3.4350
25.30	3.4353
25.30	3.4357
25.32	3.4360
25.34	3.4365
25.36	3.4370
25.38	3.4373
25.39	3.4375
25.41	3.4378
25.42	3.4382
25.44	3.4387
25.45	3.4395
25.47	3.4401
25.49	3.4408
25.51	3.4413
25.53	3.4417
25.54	3.4422
25.56	3.4425
25.57	3.4431
25.59	3.4436
25.60	3.4438
25.63	3.4442
25.64	3.4446
25.65	3.4449
25.67	3.4451
25.69	3.4455
25.70	3.4460
25.73	3.4463
25.74	3.4469
25.76	3.4473
25.78	3.4475
25.79	3.4481
25.81	3.4487
25.82	3.4494
25.84	3.4500
25.85	3.4507
25.87	3.4514
25.89	3.4519
25.90	3.4523
25.92	3.4527
25.94	3.4529
25.96	3.4536
25.97	3.4539
25.98	3.4544
26.00	3.4547
26.02	3.4552
26.04	3.4554
26.06	3.4559
26.08	3.4563
26.09	3.4568
26.10	3.4571
26.12	3.4575
26.14	3.4580
26.15	3.4587
26.17	3.4593
26.18	3.4599
26.20	3.4604
26.22	3.4609
26.24	3.4615
26.26	3.4620
26.27	3.4625
26.29	3.4629
26.30	3.4635
26.32	3.4640
26.34	3.4644
26.36	3.4648
26.37	3.4651
26.39	3.4657
26.40	3.4663
26.42	3.4668
26.44	3.4673
26.45	3.4678
26.47	3.4681
26.48	3.4683
26.50	3.4687
26.52	3.4693
26.54	3.4701
26.55	3.4709
26.57	3.4713
26.59	3.4718
26.60	3.4723
26.62	3.4728
26.64	3.4735
26.65	3.4739
26.67	3.4745
26.69	3.4750
26.70	3.4753
26.72	3.4756
26.73	3.4757
26.75	3.4759
26.77	3.4764
26.79	3.4768
26.80	3.4772
26.82	3.4775
26.84	3.4780
26.85	3.4784
26.87	3.4792
26.89	3.4797
26.90	3.4801
26.92	3.4807
26.94	3.4813
26.95	3.4817
26.97	3.4822
26.99	3.4826
27.00	3.4830
27.02	3.4833
27.04	3.4836
27.05	3.4839
27.07	3.4842
27.08	3.4844
27.10	3.4847
27.12	3.4850
27.13	3.4852
27.15	3.4857
27.17	3.4860
27.19	3.4864
27.20	3.4867
27.22	3.4872
27.23	3.4877
27.25	3.4882
27.27	3.4885
27.29	3.4890
27.30	3.4893
27.32	3.4898
27.33	3.4902
27.35	3.4907
27.37	3.4908
27.38	3.4913
27.40	3.4914
27.42	3.4918
27.44	3.4923
27.45	3.4928
27.47	3.4934
27.48	3.4938
27.50	3.4941
27.52	3.4941
27.54	3.4945
27.55	3.4948
27.57	3.4949
27.59	3.4953
27.60	3.4958
27.62	3.4964
27.64	3.4969
27.65	3.4976
27.67	3.4982
27.69	3.4989
27.70	3.4992
27.72	3.4998
27.74	3.5003
27.75	3.5008
27.77	3.5013
27.79	3.5016
27.80	3.5020
27.82	3.5024
27.84	3.5030
27.85	3.5034
27.87	3.5040
27.88	3.5045
27.90	3.5047
27.92	3.5051
27.94	3.5056
27.95	3.5063
27.97	3.5067
27.98	3.5074
28.00	3.5080
28.03	3.5088
28.04	3.5095
28.05	3.5100
28.07	3.5105
28.09	3.5111
28.10	3.5116
28.12	3.5121
28.14	3.5127
28.15	3.5130
28.17	3.5137
28.19	3.5142
28.20	3.5147
28.22	3.5150
28.23	3.5154
28.25	3.5159
28.27	3.5162
28.28	3.5167
28.30	3.5171
28.32	3.5177
28.34	3.5183
28.35	3.5190
28.37	3.5197
28.39	3.5205
28.40	3.5211
28.42	3.5218
28.44	3.5224
28.45	3.5226
28.47	3.5231
28.49	3.5234
28.50	3.5239
28.52	3.5242
28.53	3.5246
28.55	3.5250
28.57	3.5255
28.58	3.5259
28.60	3.5264
28.62	3.5268
28.64	3.5273
28.65	3.5276
28.67	3.5282
28.69	3.5289
28.70	3.5295
28.72	3.5302
28.73	3.5309
28.75	3.5316
28.77	3.5322
28.78	3.5328
28.80	3.5333
28.82	3.5337
28.84	3.5343
28.85	3.5346
28.87	3.5351
28.89	3.5356
28.90	3.5359
28.92	3.5363
28.94	3.5368
28.95	3.5370
28.97	3.5376
28.99	3.5382
29.00	3.5386
29.02	3.5392
29.03	3.5396
29.05	3.5403
29.07	3.5409
29.08	3.5416
29.10	3.5421
29.12	3.5428
29.14	3.5431
29.15	3.5435
29.17	3.5440
29.18	3.5444
29.20	3.5449
29.22	3.5455
29.23	3.5456
29.25	3.5459
29.27	3.5463
29.29	3.5469
29.30	3.5473
29.31	3.5476
29.33	3.5482
29.35	3.5485
29.37	3.5488
29.39	3.5495
29.40	3.5500
29.42	3.5506
29.43	3.5511
29.45	3.5515
29.47	3.5521
29.48	3.5526
29.50	3.5530
29.52	3.5536
29.54	3.5539
29.55	3.5543
29.57	3.5547
29.59	3.5552
29.60	3.5554
29.62	3.5559
29.63	3.5563
29.65	3.5567
29.67	3.5572
29.69	3.5577
29.70	3.5579
29.72	3.5581
29.73	3.5585
29.75	3.5591
29.76	3.5596
29.78	3.5600
29.80	3.5604
29.82	3.5610
29.83	3.5615
29.85	3.5618
29.87	3.5623
29.88	3.5630
29.90	3.5632
29.92	3.5636
29.93	3.5640
29.95	3.5643
29.97	3.5647
29.99	3.5649
30.00	3.5655
30.02	3.5659
30.04	3.5662
30.05	3.5667
30.07	3.5669
30.09	3.5673
30.10	3.5677
30.12	3.5680
30.14	3.5688
30.15	3.5695
30.16	3.5702
30.18	3.5706
30.20	3.5712
30.22	3.5716
30.23	3.5722
30.25	3.5723
30.27	3.5728
30.29	3.5731
30.30	3.5736
30.32	3.5737
30.33	3.5741
30.35	3.5744
30.37	3.5749
30.38	3.5752
30.40	3.5757
30.42	3.5760
30.44	3.5762
30.45	3.5767
30.47	3.5774
30.49	3.5781
30.50	3.5787
30.52	3.5793
30.53	3.5796
30.55	3.5801
30.57	3.5806
30.58	3.5810
30.60	3.5814
30.62	3.5820
30.63	3.5826
30.65	3.5829
30.67	3.5835
30.68	3.5839
30.70	3.5845
30.72	3.5850
30.73	3.5855
30.75	3.5857
30.77	3.5862
30.78	3.5863
30.80	3.5867
30.82	3.5871
30.83	3.5875
30.85	3.5882
30.87	3.5887
30.88	3.5893
30.90	3.5898
30.92	3.5906
30.93	3.5911
30.95	3.5917
30.97	3.5922
30.99	3.5926
31.00	3.5929
31.02	3.5933
31.04	3.5937
31.05	3.5939
31.07	3.5942
31.08	3.5946
31.10	3.5949
31.12	3.5951
31.13	3.5956
31.15	3.5961
31.16	3.5968
31.18	3.5975
31.20	3.5981
31.22	3.5986
31.23	3.5992
31.25	3.5994
31.27	3.6000
31.29	3.6006
31.30	3.6011
31.32	3.6016
31.33	3.6023
31.35	3.6025
31.36	3.6029
31.38	3.6035
31.40	3.6040
31.42	3.6042
31.43	3.6047
31.45	3.6049
31.47	3.6054
31.48	3.6057
31.50	3.6060
31.52	3.6066
31.53	3.6075
31.55	3.6080
31.57	3.6087
31.58	3.6093
31.60	3.6097
31.62	3.6102
31.63	3.6108
31.65	3.6113
31.66	3.6116
31.68	3.6121
31.70	3.6122
31.71	3.6126
31.73	3.6129
31.75	3.6134
31.77	3.6137
31.78	3.6140
31.80	3.6144
31.82	3.6149
31.83	3.6154
31.85	3.6157
31.86	3.6163
31.88	3.6167
31.90	3.6170
31.92	3.6177
31.93	3.6182
31.95	3.6188
31.96	3.6192
31.98	3.6198
32.00	3.6203
32.02	3.6209
32.03	3.6214
32.05	3.6219
32.07	3.6222
32.09	3.6226
32.10	3.6228
32.12	3.6232
32.13	3.6237
32.15	3.6241
32.17	3.6245
32.18	3.6248
32.20	3.6251
32.22	3.6254
32.23	3.6259
32.24	3.6265
32.26	3.6269
32.28	3.6278
32.30	3.6284
32.31	3.6290
32.33	3.6295
32.34	3.6301
32.36	3.6307
32.38	3.6311
32.39	3.6314
32.41	3.6318
32.43	3.6322
32.45	3.6325
32.46	3.6328
32.48	3.6333
32.49	3.6339
32.52	3.6341
32.53	3.6347
32.55	3.6352
32.57	3.6356
32.58	3.6361
32.60	3.6367
32.62	3.6371
32.63	3.6377
32.65	3.6384
32.67	3.6390
32.68	3.6396
32.70	3.6402
32.71	3.6405
32.73	3.6409
32.74	3.6413
32.76	3.6417
32.77	3.6423
32.79	3.6426
32.81	3.6431
32.83	3.6433
32.85	3.6439
32.87	3.6441
32.88	3.6445
32.89	3.6448
32.91	3.6452
32.93	3.6455
32.95	3.6460
32.96	3.6467
32.98	3.6471
33.00	3.6478
33.02	3.6484
33.03	3.6490
33.05	3.6495
33.06	3.6501
33.08	3.6506
33.09	3.6508
33.11	3.6510
33.13	3.6514
33.15	3.6518
33.16	3.6521
33.18	3.6524
33.20	3.6528
33.20	3.6534
33.23	3.6538
33.24	3.6541
33.26	3.6546
33.27	3.6552
33.30	3.6558
33.31	3.6565
33.33	3.6571
33.34	3.6577
33.36	3.6584
33.38	3.6589
33.40	3.6594
33.41	3.6597
33.43	3.6601
33.45	3.6608
33.46	3.6610
33.48	3.6615
33.49	3.6617
33.51	3.6622
33.52	3.6627
33.55	3.6631
33.57	3.6635
33.58	3.6639
33.59	3.6643
33.61	3.6646
33.63	3.6650
33.65	3.6656
33.66	3.6663
33.68	3.6671
33.70	3.6676
33.71	3.6684
33.73	3.6691
33.74	3.6697
33.76	3.6702
33.77	3.6706
33.79	3.6709
33.81	3.6713
33.83	3.6718
33.84	3.6722
33.86	3.6726
33.88	3.6730
33.90	3.6737
33.91	3.6743
33.93	3.6750
33.95	3.6755
33.96	3.6760
33.98	3.6765
33.99	3.6768
34.00	3.6774
34.02	3.6778
34.04	3.6785
34.06	3.6792
34.08	3.6797
34.09	3.6804
34.11	3.6809
34.13	3.6817
34.15	3.6821
34.16	3.6827
34.18	3.6831
34.20	3.6836
34.21	3.6840
34.23	3.6843
34.24	3.6849
34.26	3.6851
34.27	3.6854
34.29	3.6857
34.31	3.6862
34.33	3.6866
34.34	3.6871
34.36	3.6876
34.38	3.6882
34.39	3.6888
34.40	3.6895
34.43	3.6900
34.44	3.6904
34.46	3.6911
34.49	3.6917
34.50	3.6922
34.51	3.6928
34.52	3.6931
34.54	3.6932
34.56	3.6937
34.58	3.6941
34.59	3.6945
34.61	3.6951
34.63	3.6954
34.64	3.6958
34.66	3.6963
34.68	3.6965
34.69	3.6972
34.71	3.6977
34.72	3.6982
34.74	3.6988
34.75	3.6992
34.77	3.6998
34.79	3.7005
34.81	3.7011
34.83	3.7018
34.84	3.7023
34.86	3.7029
34.88	3.7034
34.89	3.7038
34.91	3.7044
34.93	3.7047
34.94	3.7052
34.96	3.7056
34.98	3.7059
34.99	3.7064
35.01	3.7069
35.03	3.7071
35.04	3.7074
35.05	3.7079
35.07	3.7085
35.09	3.7094
35.11	3.7104
35.13	3.7108
35.14	3.7114
35.15	3.7118
35.17	3.7124
35.19	3.7128
35.21	3.7132
35.23	3.7135
35.24	3.7137
35.26	3.7142
35.28	3.7146
35.30	3.7149
35.31	3.7154
35.33	3.7158
35.34	3.7161
35.35	3.7166
35.37	3.7171
35.39	3.7176
35.40	3.7182
35.42	3.7189
35.44	3.7195
35.45	3.7200
35.48	3.7206
35.49	3.7212
35.50	3.7217
35.52	3.7222
35.54	3.7226
35.55	3.7233
35.58	3.7239
35.59	3.7244
35.60	3.7249
35.62	3.7255
35.63	3.7260
35.65	3.7265
35.67	3.7271
35.69	3.7276
35.70	3.7279
35.73	3.7281
35.74	3.7282
35.75	3.7287
35.77	3.7292
35.79	3.7299
35.80	3.7305
35.83	3.7312
35.84	3.7318
35.85	3.7324
35.87	3.7331
35.89	3.7337
35.91	3.7342
35.93	3.7345
35.94	3.7350
35.95	3.7354
35.97	3.7358
35.99	3.7363
36.01	3.7367
36.02	3.7372
36.04	3.7375
36.05	3.7381
36.07	3.7385
36.09	3.7389
36.10	3.7396
36.13	3.7401
36.14	3.7406
36.15	3.7413
36.17	3.7417
36.19	3.7423
36.21	3.7429
36.23	3.7434
36.24	3.7440
36.25	3.7445
36.27	3.7450
36.29	3.7456
36.31	3.7461
36.32	3.7464
36.34	3.7470
36.36	3.7474
36.37	3.7476
36.39	3.7477
36.40	3.7480
36.42	3.7486
36.44	3.7490
36.45	3.7494
36.47	3.7500
36.49	3.7507
36.51	3.7515
36.52	3.7521
36.54	3.7528
36.56	3.7531
36.57	3.7537
36.59	3.7543
36.60	3.7547
36.62	3.7550
36.64	3.7556
36.66	3.7563
36.67	3.7566
36.69	3.7570
36.71	3.7574
36.73	3.7578
36.74	3.7582
36.75	3.7584
36.77	3.7590
36.79	3.7593
36.81	3.7598
36.82	3.7603
36.84	3.7611
36.86	3.7617
36.88	3.7623
36.89	3.7629
36.90	3.7635
36.92	3.7641
36.94	3.7648
36.95	3.7652
36.97	3.7658
36.99	3.7664
37.00	3.7669
37.02	3.7673
37.04	3.7677
37.05	3.7681
37.07	3.7683
37.09	3.7686
37.10	3.7691
37.13	3.7694
37.14	3.7699
37.15	3.7705
37.18	3.7711
37.19	3.7717
37.21	3.7725
37.22	3.7730
37.24	3.7733
37.25	3.7737
37.27	3.7742
37.29	3.7746
37.30	3.7752
37.32	3.7757
37.34	3.7762
37.35	3.7765
37.37	3.7769
37.39	3.7775
37.40	3.7780
37.42	3.7784
37.44	3.7788
37.45	3.7793
37.47	3.7798
37.49	3.7804
37.50	3.7808
37.52	3.7814
37.54	3.7820
37.56	3.7827
37.58	3.7831
37.59	3.7836
37.60	3.7839
37.62	3.7845
37.63	3.7849
37.65	3.7854
37.67	3.7858
37.69	3.7861
37.70	3.7865
37.72	3.7869
37.74	3.7872
37.75	3.7874
37.77	3.7878
37.78	3.7883
37.80	3.7888
37.82	3.7893
37.83	3.7896
37.85	3.7899
37.87	3.7905
37.88	3.7909
37.90	3.7914
37.92	3.7918
37.93	3.7924
37.95	3.7930
37.97	3.7938
37.99	3.7944
38.00	3.7949
38.02	3.7951
38.04	3.7955
38.05	3.7960
38.07	3.7965
38.08	3.7969
38.10	3.7973
38.12	3.7977
38.13	3.7983
38.15	3.7988
38.16	3.7993
38.18	3.7998
38.20	3.8003
38.22	3.8009
38.23	3.8016
38.25	3.8024
38.27	3.8029
38.29	3.8034
38.30	3.8039
38.32	3.8044
38.33	3.8049
38.35	3.8054
38.37	3.8060
38.39	3.8065
38.40	3.8068
38.42	3.8070
38.44	3.8073
38.46	3.8078
38.47	3.8081
38.49	3.8085
38.50	3.8088
38.52	3.8094
38.53	3.8099
38.55	3.8103
38.57	3.8109
38.58	3.8115
38.61	3.8121
38.63	3.8128
38.64	3.8137
38.65	3.8141
38.68	3.8145
38.69	3.8151
38.70	3.8156
38.72	3.8162
38.74	3.8167
38.76	3.8172
38.77	3.8178
38.79	3.8182
38.80	3.8187
38.83	3.8191
38.84	3.8196
38.85	3.8200
38.87	3.8203
38.88	3.8206
38.90	3.8209
38.91	3.8214
38.93	3.8221
38.95	3.8228
38.97	3.8234
38.99	3.8240
39.00	3.8245
39.02	3.8249
39.04	3.8256
39.05	3.8263
39.07	3.8267
39.09	3.8274
39.10	3.8280
39.12	3.8284
39.14	3.8289
39.15	3.8292
39.17	3.8296
39.18	3.8301
39.20	3.8304
39.22	3.8307
39.23	3.8312
39.25	3.8316
39.27	3.8322
39.29	3.8329
39.30	3.8335
39.32	3.8343
39.34	3.8350
39.36	3.8355
39.37	3.8361
39.39	3.8367
39.40	3.8372
39.42	3.8377
39.43	3.8383
39.45	3.8387
39.47	3.8393
39.49	3.8397
39.50	3.8402
39.52	3.8407
39.53	3.8413
39.55	3.8417
39.57	3.8421
39.58	3.8426
39.60	3.8429
39.62	3.8436
39.63	3.8444
39.65	3.8452
39.68	3.8459
39.69	3.8466
39.70	3.8471
39.72	3.8479
39.74	3.8483
39.75	3.8487
39.77	3.8492
39.78	3.8497
39.80	3.8500
39.82	3.8506
39.84	3.8512
39.85	3.8519
39.87	3.8525
39.89	3.8528
39.90	3.8532
39.92	3.8537
39.93	3.8541
39.95	3.8545
39.97	3.8551
39.99	3.8557
40.00	3.8563
40.02	3.8570
40.04	3.8579
40.05	3.8585
40.07	3.8591
40.09	3.8598
40.10	3.8602
40.12	3.8607
40.13	3.8614
40.15	3.8618
40.17	3.8621
40.19	3.8626
40.20	3.8629
40.22	3.8633
40.23	3.8638
40.25	3.8642
40.27	3.8644
40.28	3.8648
40.30	3.8654
40.32	3.8660
40.34	3.8667
40.35	3.8672
40.36	3.8681
40.38	3.8687
40.40	3.8693
40.42	3.8699
40.43	3.8704
40.45	3.8711
40.47	3.8717
40.49	3.8725
40.51	3.8729
40.52	3.8733
40.53	3.8738
40.55	3.8742
40.57	3.8746
40.58	3.8752
40.60	3.8754
40.62	3.8757
40.63	3.8762
40.65	3.8765
40.67	3.8772
40.68	3.8778
40.70	3.8782
40.72	3.8788
40.74	3.8796
40.75	3.8802
40.77	3.8808
40.79	3.8812
40.80	3.8815
40.82	3.8822
40.83	3.8827
40.85	3.8829
40.86	3.8834
40.88	3.8838
40.90	3.8842
40.92	3.8847
40.94	3.8851
40.95	3.8855
40.96	3.8859
40.98	3.8863
40.99	3.8868
41.02	3.8875
41.03	3.8881
41.05	3.8887
41.07	3.8892
41.08	3.8899
41.10	3.8904
41.12	3.8910
41.14	3.8915
41.15	3.8917
41.16	3.8921
41.18	3.8927
41.20	3.8931
41.22	3.8937
41.23	3.8941
41.24	3.8947
41.27	3.8951
41.28	3.8956
41.30	3.8960
41.31	3.8966
41.33	3.8972
41.35	3.8978
41.36	3.8983
41.38	3.8991
41.39	3.8996
41.41	3.9003
41.43	3.9009
41.45	3.9015
41.47	3.9022
41.48	3.9029
41.49	3.9034
41.52	3.9042
41.53	3.9049
41.55	3.9054
41.57	3.9058
41.58	3.9062
41.59	3.9066
41.62	3.9071
41.63	3.9074
41.65	3.9078
41.66	3.9084
41.68	3.9089
41.70	3.9093
41.72	3.9100
41.73	3.9106
41.74	3.9114
41.77	3.9121
41.78	3.9126
41.80	3.9132
41.82	3.9138
41.83	3.9142
41.85	3.9147
41.87	3.9151
41.88	3.9156
41.90	3.9159
41.92	3.9166
41.93	3.9171
41.95	3.9176
41.97	3.9180
41.99	3.9185
42.00	3.9188
42.02	3.9195
42.03	3.9199
42.05	3.9205
42.07	3.9212
42.08	3.9220
42.09	3.9228
42.11	3.9234
42.13	3.9241
42.15	3.9244
42.16	3.9250
42.18	3.9258
42.20	3.9261
42.22	3.9267
42.23	3.9271
42.25	3.9273
42.26	3.9280
42.28	3.9284
42.30	3.9287
42.31	3.9293
42.33	3.9299
42.35	3.9304
42.36	3.9309
42.38	3.9315
42.40	3.9322
42.42	3.9328
42.43	3.9334
42.45	3.9341
42.46	3.9347
42.48	3.9354
42.50	3.9359
42.52	3.9364
42.53	3.9372
42.55	3.9378
42.56	3.9383
42.58	3.9389
42.59	3.9393
42.61	3.9397
42.63	3.9400
42.65	3.9404
42.66	3.9409
42.68	3.9414
42.70	3.9419
42.72	3.9425
42.73	3.9430
42.75	3.9433
42.76	3.9439
42.78	3.9447
42.80	3.9452
42.81	3.9458
42.83	3.9463
42.85	3.9469
42.87	3.9475
42.88	3.9481
42.90	3.9485
42.92	3.9490
42.93	3.9494
42.95	3.9500
42.97	3.9504
42.99	3.9506
43.00	3.9510
43.02	3.9516
43.03	3.9520
43.05	3.9524
43.06	3.9529
43.08	3.9533
43.09	3.9540
43.11	3.9547
43.13	3.9554
43.15	3.9561
43.16	3.9569
43.18	3.9576
43.20	3.9582
43.21	3.9589
43.23	3.9592
43.24	3.9598
43.26	3.9603
43.27	3.9607
43.30	3.9610
43.32	3.9616
43.33	3.9620
43.35	3.9624
43.36	3.9630
43.38	3.9634
43.39	3.9640
43.41	3.9643
43.43	3.9649
43.45	3.9656
43.46	3.9662
43.48	3.9669
43.49	3.9677
43.52	3.9684
43.53	3.9689
43.55	3.9696
43.56	3.9702
43.58	3.9706
43.59	3.9711
43.61	3.9717
43.63	3.9723
43.65	3.9729
43.67	3.9732
43.68	3.9739
43.70	3.9744
43.71	3.9748
43.73	3.9753
43.74	3.9760
43.76	3.9765
43.78	3.9771
43.80	3.9775
43.81	3.9781
43.83	3.9787
43.84	3.9794
43.86	3.9801
43.88	3.9807
43.89	3.9813
43.91	3.9818
43.93	3.9824
43.94	3.9831
43.96	3.9838
43.98	3.9842
43.99	3.9845
44.01	3.9850
44.02	3.9852
44.05	3.9855
44.06	3.9858
44.08	3.9861
44.09	3.9865
44.11	3.9870
44.13	3.9876
44.14	3.9883
44.16	3.9893
44.18	3.9897
44.20	3.9904
44.21	3.9908
44.23	3.9912
44.24	3.9917
44.26	3.9926
44.27	3.9933
44.29	3.9936
44.31	3.9939
44.33	3.9941
44.34	3.9946
44.36	3.9952
44.38	3.9957
44.39	3.9961
44.41	3.9966
44.43	3.9970
44.44	3.9975
44.45	3.9980
44.48	3.9982
44.49	3.9988
44.51	3.9996
44.53	4.0003
44.55	4.0009
44.56	4.0014
44.58	4.0019
44.59	4.0027
44.61	4.0031
44.63	4.0038
44.65	4.0043
44.66	4.0049
44.67	4.0053
44.69	4.0060
44.71	4.0064
44.73	4.0067
44.74	4.0070
44.76	4.0075
44.77	4.0080
44.79	4.0084
44.81	4.0088
44.83	4.0095
44.84	4.0102
44.86	4.0107
44.88	4.0114
44.89	4.0119
44.91	4.0125
44.93	4.0130
44.94	4.0134
44.95	4.0139
44.97	4.0144
44.99	4.0149
45.01	4.0155
45.02	4.0161
45.04	4.0166
45.05	4.0172
45.08	4.0176
45.09	4.0180
45.10	4.0184
45.12	4.0188
45.14	4.0191
45.16	4.0197
45.18	4.0202
45.19	4.0209
45.21	4.0214
45.22	4.0220
45.24	4.0227
45.26	4.0233
45.28	4.0237
45.29	4.0243
45.31	4.0247
45.33	4.0251
45.34	4.0256
45.35	4.0263
45.37	4.0267
45.39	4.0274
45.41	4.0280
45.43	4.0284
45.44	4.0290
45.45	4.0295
45.48	4.0299
45.50	4.0302
45.50	4.0310
45.51	4.0314
45.54	4.0319
45.55	4.0326
45.57	4.0333
45.59	4.0339
45.61	4.0345
45.63	4.0350
45.64	4.0358
45.66	4.0365
45.68	4.0371
45.69	4.0378
45.71	4.0383
45.73	4.0388
45.74	4.0392
45.75	4.0398
45.78	4.0405
45.80	4.0410
45.81	4.0414
45.83	4.0418
45.84	4.0423
45.85	4.0427
45.87	4.0433
45.89	4.0440
45.90	4.0448
45.92	4.0451
45.94	4.0459
45.95	4.0465
45.98	4.0470
45.99	4.0477
46.01	4.0481
46.02	4.0486
46.03	4.0491
46.05	4.0498
46.08	4.0502
46.09	4.0509
46.10	4.0514
46.13	4.0519
46.14	4.0522
46.16	4.0528
46.18	4.0531
46.20	4.0536
46.21	4.0542
46.23	4.0548
46.24	4.0554
46.26	4.0562
46.27	4.0567
46.29	4.0572
46.31	4.0576
46.33	4.0581
46.34	4.0585
46.35	4.0591
46.38	4.0596
46.39	4.0602
46.40	4.0607
46.42	4.0612
46.44	4.0616
46.46	4.0621
46.48	4.0625
46.49	4.0629
46.50	4.0633
46.52	4.0641
46.54	4.0644
46.56	4.0651
46.58	4.0656
46.59	4.0661
46.61	4.0668
46.63	4.0675
46.64	4.0682
46.65	4.0687
46.68	4.0691
46.70	4.0697
46.71	4.0702
46.72	4.0705
46.74	4.0708
46.76	4.0713
46.77	4.0717
46.79	4.0722
46.80	4.0728
46.82	4.0731
46.83	4.0736
46.85	4.0742
46.88	4.0749
46.89	4.0755
46.91	4.0763
46.92	4.0771
46.94	4.0779
46.96	4.0781
46.98	4.0785
46.99	4.0793
47.01	4.0799
47.02	4.0804
47.04	4.0810
47.06	4.0813
47.08	4.0818
47.09	4.0825
47.11	4.0830
47.13	4.0835
47.15	4.0840
47.16	4.0843
47.18	4.0848
47.19	4.0853
47.21	4.0857
47.23	4.0862
47.24	4.0868
47.25	4.0873
47.27	4.0879
47.29	4.0887
47.31	4.0895
47.33	4.0900
47.34	4.0904
47.36	4.0912
47.38	4.0915
47.39	4.0919
47.40	4.0925
47.42	4.0930
47.44	4.0935
47.46	4.0941
47.48	4.0947
47.49	4.0951
47.51	4.0955
47.52	4.0958
47.53	4.0963
47.55	4.0967
47.58	4.0972
47.59	4.0978
47.60	4.0984
47.62	4.0991
47.64	4.0996
47.66	4.1003
47.67	4.1009
47.69	4.1017
47.70	4.1024
47.73	4.1030
47.74	4.1037
47.76	4.1041
47.77	4.1045
47.79	4.1050
47.80	4.1053
47.83	4.1057
47.84	4.1063
47.86	4.1070
47.87	4.1075
47.89	4.1078
47.91	4.1084
47.93	4.1089
47.94	4.1097
47.95	4.1103
47.98	4.1112
47.99	4.1121
48.01	4.1125
48.02	4.1131
48.04	4.1136
48.06	4.1142
48.08	4.1149
48.09	4.1154
48.11	4.1160
48.13	4.1166
48.14	4.1169
48.15	4.1175
48.17	4.1178
48.19	4.1184
48.20	4.1188
48.22	4.1192
48.24	4.1197
48.26	4.1202
48.28	4.1210
48.29	4.1217
48.31	4.1223
48.33	4.1230
48.34	4.1238
48.35	4.1245
48.37	4.1251
48.39	4.1255
48.41	4.1260
48.43	4.1267
48.45	4.1271
48.46	4.1276
48.47	4.1281
48.48	4.1286
48.50	4.1289
48.52	4.1293
48.54	4.1297
48.55	4.1301
48.57	4.1307
48.59	4.1311
48.60	4.1316
48.62	4.1322
48.64	4.1331
48.65	4.1337
48.68	4.1345
48.69	4.1352
48.70	4.1355
48.72	4.1359
48.74	4.1366
48.76	4.1370
48.77	4.1376
48.79	4.1382
48.80	4.1386
48.82	4.1390
48.84	4.1395
48.85	4.1398
48.88	4.1401
48.89	4.1407
48.90	4.1410
48.92	4.1412
48.94	4.1418
48.95	4.1423
48.97	4.1430
48.98	4.1437
49.00	4.1442
49.02	4.1449
49.04	4.1453
49.06	4.1457
49.07	4.1464
49.09	4.1467
49.11	4.1471
49.12	4.1476
49.14	4.1479
49.16	4.1482
49.17	4.1486
49.19	4.1490
49.21	4.1494
49.23	4.1497
49.24	4.1501
49.25	4.1504
49.27	4.1509
49.29	4.1515
49.30	4.1520
49.33	4.1527
49.34	4.1533
49.35	4.1538
49.38	4.1542
49.39	4.1548
49.40	4.1553
49.42	4.1558
49.44	4.1564
49.45	4.1568
49.47	4.1572
49.48	4.1577
49.50	4.1579
49.52	4.1583
49.54	4.1585
49.55	4.1589
49.57	4.1595
49.58	4.1600
49.60	4.1604
49.63	4.1611
49.64	4.1619
49.66	4.1626
49.67	4.1633
49.69	4.1639
49.70	4.1645
49.72	4.1652
49.73	4.1659
49.75	4.1665
49.77	4.1671
49.78	4.1678
49.80	4.1680
49.82	4.1685
49.83	4.1690
49.85	4.1696
49.87	4.1700
49.89	4.1704
49.91	4.1712
49.92	4.1713
49.93	4.1720
49.95	4.1726
49.98	4.1731
49.99	4.1742
50.01	4.1749
50.02	4.1752
50.04	4.1760
50.05	4.1767
50.07	4.1771
50.09	4.1784
50.10	4.1789
50.12	4.1791
50.14	4.1796
50.15	4.1804
50.17	4.1812
50.19	4.1818
50.20	4.1816
50.22	4.1819
50.24	4.1823
50.25	4.1830
50.27	4.1830
50.29	4.1836
50.30	4.1841
50.32	4.1850
50.34	4.1856
50.35	4.1861
50.38	4.1869
50.39	4.1875
50.40	4.1881
50.42	4.1885
50.43	4.1890
50.45	4.1896
50.47	4.1899
50.49	4.1905
50.50	4.1910
50.52	4.1916
50.54	4.1921
50.55	4.1925
50.57	4.1930
50.59	4.1934
50.60	4.1936
50.62	4.1941
50.64	4.1947
50.65	4.1953
50.67	4.1959
50.69	4.1964
50.70	4.1970
50.72	4.1976
50.74	4.1981
50.75	4.1989
50.77	4.1995
50.79	4.2001
50.80	4.2009
50.82	4.2012
50.84	4.2017
50.85	4.2020
50.87	4.2025
50.89	4.2030
50.90	4.2033
50.92	4.2037
50.94	4.2043
50.95	4.2048
50.97	4.2054
50.99	4.2061
51.00	4.2065
51.02	4.2074
51.04	4.2081
51.05	4.2088
51.07	4.2093
51.09	4.2101
51.10	4.2105
51.12	4.2112
51.13	4.2118
51.15	4.2121
51.17	4.2129
51.19	4.2136
51.20	4.2140
51.22	4.2147
51.24	4.2152
51.25	4.2155
51.27	4.2160
51.29	4.2163
51.30	4.2168
51.32	4.2174
51.33	4.2178
51.35	4.2185
51.37	4.2191
51.38	4.2198
51.40	4.2204
51.42	4.2209
51.43	4.2216
51.45	4.2222
51.47	4.2228
51.48	4.2234
51.50	4.2238
51.52	4.2244
51.54	4.2249
51.55	4.2253
51.57	4.2257
51.59	4.2263
51.60	4.2267
51.62	4.2273
51.64	4.2276
51.65	4.2281
51.67	4.2287
51.69	4.2293
51.70	4.2300
51.72	4.2306
51.74	4.2313
51.75	4.2317
51.77	4.2323
51.78	4.2329
51.80	4.2334
51.82	4.2341
51.83	4.2348
51.85	4.2353
51.87	4.2359
51.88	4.2367
51.90	4.2371
51.92	4.2376
51.93	4.2381
51.95	4.2386
51.97	4.2391
51.98	4.2397
52.00	4.2402
52.02	4.2408
52.04	4.2415
52.05	4.2423
52.07	4.2430
52.09	4.2436
52.10	4.2442
52.12	4.2448
52.14	4.2455
52.15	4.2462
52.17	4.2467
52.18	4.2472
52.20	4.2477
52.21	4.2481
52.23	4.2486
52.25	4.2490
52.27	4.2497
52.28	4.2503
52.30	4.2509
52.32	4.2517
52.33	4.2521
52.35	4.2527
52.37	4.2533
52.38	4.2542
52.40	4.2548
52.42	4.2555
52.43	4.2562
52.45	4.2569
52.47	4.2574
52.49	4.2580
52.50	4.2586
52.52	4.2591
52.54	4.2596
52.55	4.2601
52.57	4.2607
52.59	4.2612
52.60	4.2616
52.62	4.2621
52.63	4.2628
52.65	4.2632
52.67	4.2637
52.68	4.2641
52.70	4.2647
52.72	4.2652
52.73	4.2659
52.75	4.2667
52.77	4.2672
52.78	4.2679
52.80	4.2686
52.81	4.2692
52.83	4.2698
52.85	4.2702
52.87	4.2708
52.88	4.2711
52.90	4.2714
52.92	4.2718
52.94	4.2723
52.95	4.2722
52.97	4.2725
52.99	4.2728
53.00	4.2733
53.02	4.2737
53.03	4.2740
53.05	4.2746
53.07	4.2752
53.08	4.2758
53.10	4.2762
53.12	4.2768
53.13	4.2772
53.15	4.2776
53.16	4.2782
53.19	4.2785
53.20	4.2790
53.22	4.2796
53.23	4.2801
53.25	4.2805
53.27	4.2809
53.28	4.2813
53.30	4.2818
53.32	4.2823
53.33	4.2826
53.34	4.2832
53.36	4.2838
53.38	4.2844
53.40	4.2851
53.42	4.2858
53.43	4.2865
53.45	4.2872
53.47	4.2876
53.48	4.2880
53.50	4.2886
53.52	4.2892
53.53	4.2896
53.55	4.2902
53.57	4.2908
53.59	4.2912
53.60	4.2918
53.62	4.2926
53.63	4.2929
53.65	4.2935
53.67	4.2940
53.68	4.2945
53.70	4.2950
53.71	4.2955
53.73	4.2964
53.75	4.2970
53.77	4.2977
53.78	4.2983
53.80	4.2990
53.82	4.2997
53.83	4.3001
53.85	4.3009
53.87	4.3016
53.88	4.3020
53.90	4.3026
53.91	4.3034
53.93	4.3040
53.95	4.3044
53.97	4.3049
53.98	4.3055
54.00	4.3061
54.01	4.3065
54.03	4.3066
54.05	4.3072
54.07	4.3079
54.08	4.3085
54.09	4.3092
54.12	4.3102
54.14	4.3106
54.15	4.3113
54.16	4.3120
54.18	4.3125
54.20	4.3131
54.21	4.3137
54.23	4.3140
54.25	4.3146
54.26	4.3153
54.28	4.3158
54.30	4.3163
54.32	4.3169
54.33	4.3174
54.35	4.3177
54.36	4.3182
54.38	4.3186
54.40	4.3191
54.42	4.3197
54.43	4.3203
54.45	4.3210
54.47	4.3215
54.48	4.3224
54.50	4.3229
54.52	4.3233
54.54	4.3238
54.55	4.3243
54.57	4.3248
54.58	4.3252
54.60	4.3257
54.62	4.3261
54.63	4.3265
54.65	4.3270
54.67	4.3276
54.68	4.3280
54.70	4.3283
54.71	4.3287
54.73	4.3291
54.75	4.3297
54.76	4.3305
54.78	4.3312
54.80	4.3318
54.82	4.3324
54.83	4.3330
54.85	4.3336
54.87	4.3342
54.88	4.3346
54.90	4.3350
54.92	4.3357
54.93	4.3361
54.95	4.3363
54.96	4.3368
54.98	4.3374
55.00	4.3378
55.01	4.3384
55.03	4.3387
55.05	4.3391
55.06	4.3395
55.08	4.3401
55.09	4.3408
55.11	4.3413
55.13	4.3419
55.15	4.3423
55.16	4.3429
55.18	4.3435
55.19	4.3441
55.21	4.3446
55.23	4.3452
55.25	4.3458
55.26	4.3463
55.28	4.3467
55.30	4.3471
55.31	4.3477
55.33	4.3481
55.35	4.3486
55.36	4.3488
55.38	4.3491
55.40	4.3497
55.41	4.3504
55.44	4.3512
55.46	4.3518
55.47	4.3524
55.47	4.3533
55.48	4.3539
55.50	4.3545
55.52	4.3549
55.54	4.3557
55.55	4.3564
55.57	4.3566
55.59	4.3571
55.62	4.3576
55.63	4.3581
55.65	4.3586
55.67	4.3589
55.68	4.3595
55.70	4.3599
55.71	4.3603
55.73	4.3605
55.75	4.3610
55.77	4.3617
55.78	4.3623
55.80	4.3630
55.81	4.3638
55.83	4.3644
55.85	4.3652
55.87	4.3658
55.88	4.3665
55.90	4.3672
55.91	4.3678
55.93	4.3682
55.95	4.3688
55.96	4.3691
55.98	4.3693
56.00	4.3697
56.01	4.3702
56.03	4.3707
56.05	4.3713
56.07	4.3719
56.08	4.3724
56.10	4.3731
56.11	4.3736
56.13	4.3744
56.15	4.3750
56.17	4.3754
56.18	4.3760
56.20	4.3768
56.22	4.3774
56.23	4.3779
56.25	4.3785
56.26	4.3791
56.28	4.3797
56.30	4.3802
56.32	4.3808
56.33	4.3810
56.34	4.3814
56.36	4.3817
56.38	4.3822
56.40	4.3828
56.41	4.3836
56.43	4.3842
56.45	4.3850
56.46	4.3856
56.48	4.3862
56.50	4.3869
56.51	4.3876
56.53	4.3882
56.55	4.3887
56.57	4.3893
56.58	4.3899
56.60	4.3906
56.61	4.3914
56.63	4.3920
56.65	4.3925
56.66	4.3929
56.68	4.3933
56.70	4.3938
56.72	4.3944
56.73	4.3950
56.75	4.3954
56.77	4.3959
56.78	4.3964
56.80	4.3972
56.81	4.3980
56.83	4.3987
56.84	4.3994
56.86	4.3999
56.88	4.4004
56.90	4.4009
56.91	4.4013
56.93	4.4016
56.95	4.4024
56.96	4.4029
56.98	4.4033
57.00	4.4039
57.01	4.4044
57.03	4.4048
57.05	4.4051
57.07	4.4056
57.08	4.4063
57.10	4.4068
57.11	4.4075
57.13	4.4082
57.15	4.4089
57.16	4.4096
57.18	4.4101
57.20	4.4105
57.22	4.4111
57.23	4.4116
57.25	4.4120
57.26	4.4125
57.28	4.4129
57.30	4.4135
57.31	4.4138
57.33	4.4142
57.34	4.4149
57.36	4.4156
57.38	4.4161
57.40	4.4166
57.42	4.4169
57.43	4.4175
57.45	4.4182
57.46	4.4188
57.48	4.4196
57.50	4.4203
57.51	4.4211
57.53	4.4218
57.55	4.4225
57.56	4.4232
57.58	4.4237
57.59	4.4244
57.61	4.4249
57.63	4.4257
57.64	4.4262
57.66	4.4267
57.68	4.4270
57.70	4.4274
57.71	4.4280
57.73	4.4284
57.75	4.4289
57.76	4.4294
57.78	4.4301
57.80	4.4308
57.81	4.4317
57.83	4.4324
57.84	4.4330
57.86	4.4336
57.88	4.4342
57.90	4.4349
57.91	4.4355
57.93	4.4362
57.95	4.4369
57.96	4.4373
57.98	4.4380
58.00	4.4386
58.01	4.4390
58.03	4.4392
58.05	4.4397
58.06	4.4400
58.08	4.4405
58.09	4.4410
58.11	4.4417
58.13	4.4423
58.15	4.4430
58.17	4.4438
58.18	4.4442
58.19	4.4449
58.21	4.4454
58.23	4.4459
58.25	4.4463
58.26	4.4469
58.28	4.4473
58.30	4.4477
58.31	4.4482
58.33	4.4486
58.34	4.4490
58.36	4.4493
58.38	4.4498
58.40	4.4501
58.41	4.4507
58.43	4.4512
58.45	4.4518
58.46	4.4525
58.48	4.4531
58.49	4.4539
58.51	4.4544
58.53	4.4551
58.55	4.4558
58.57	4.4564
58.58	4.4570
58.59	4.4573
58.61	4.4578
58.63	4.4583
58.64	4.4588
58.66	4.4593
58.68	4.4597
58.69	4.4600
58.71	4.4605
58.73	4.4610
58.75	4.4615
58.76	4.4619
58.78	4.4624
58.80	4.4632
58.81	4.4639
58.83	4.4648
58.84	4.4658
58.86	4.4664
58.88	4.4672
58.89	4.4678
58.91	4.4681
58.93	4.4686
58.94	4.4693
58.96	4.4698
58.98	4.4705
58.99	4.4709
59.01	4.4714
59.03	4.4721
59.05	4.4729
59.06	4.4732
59.08	4.4738
59.09	4.4745
59.11	4.4751
59.13	4.4758
59.14	4.4766
59.16	4.4771
59.18	4.4779
59.20	4.4786
59.21	4.4793
59.23	4.4800
59.24	4.4807
59.26	4.4813
59.28	4.4819
59.30	4.4827
59.31	4.4831
59.33	4.4838
59.34	4.4841
59.36	4.4844
59.38	4.4851
59.40	4.4857
59.41	4.4862
59.43	4.4866
59.44	4.4872
59.46	4.4877
59.48	4.4884
59.49	4.4892
59.51	4.4899
59.53	4.4906
59.54	4.4911
59.56	4.4916
59.58	4.4921
59.59	4.4926
59.61	4.4932
59.63	4.4937
59.64	4.4943
59.66	4.4945
59.68	4.4950
59.70	4.4956
59.71	4.4963
59.73	4.4968
59.74	4.4974
59.76	4.4976
59.78	4.4981
59.80	4.4987
59.81	4.4992
59.83	4.4999
59.84	4.5005
59.86	4.5011
59.88	4.5018
59.89	4.5025
59.91	4.5031
59.93	4.5036
59.94	4.5039
59.96	4.5044
59.97	4.5048
59.99	4.5051
60.01	4.5055
60.02	4.5061
60.04	4.5065
60.06	4.5071
60.08	4.5076
60.09	4.5080
60.11	4.5082
60.13	4.5086
60.15	4.5092
60.16	4.5099
60.18	4.5107
60.19	4.5113
60.21	4.5118
60.23	4.5124
60.25	4.5130
60.26	4.5137
60.27	4.5143
60.29	4.5150
60.31	4.5153
60.33	4.5159
60.34	4.5164
60.36	4.5167
60.38	4.5172
60.39	4.5177
60.41	4.5180
60.43	4.5186
60.44	4.5191
60.45	4.5197
60.48	4.5204
60.49	4.5210
60.51	4.5217
60.52	4.5223
60.54	4.5231
60.56	4.5237
60.57	4.5243
60.59	4.5247
60.61	4.5256
60.63	4.5261
60.64	4.5266
60.66	4.5269
60.68	4.5274
60.69	4.5277
60.71	4.5281
60.73	4.5286
60.74	4.5290
60.76	4.5293
60.77	4.5298
60.79	4.5305
60.81	4.5314
60.83	4.5323
60.84	4.5330
60.86	4.5335
60.88	4.5342
60.89	4.5347
60.90	4.5352
60.93	4.5355
60.94	4.5359
60.95	4.5362
60.98	4.5365
61.00	4.5369
61.01	4.5375
61.02	4.5379
61.04	4.5384
61.05	4.5389
61.08	4.5393
61.09	4.5398
61.11	4.5402
61.13	4.5408
61.14	4.5415
61.16	4.5420
61.18	4.5427
61.19	4.5433
61.21	4.5439
61.23	4.5446
61.24	4.5451
61.25	4.5457
61.27	4.5463
61.29	4.5469
61.31	4.5473
61.33	4.5478
61.34	4.5484
61.36	4.5488
61.38	4.5493
61.39	4.5497
61.41	4.5500
61.43	4.5504
61.44	4.5511
61.45	4.5517
61.48	4.5527
61.49	4.5536
61.51	4.5542
61.52	4.5550
61.54	4.5557
61.56	4.5563
61.57	4.5570
61.59	4.5576
61.60	4.5581
61.62	4.5585
61.65	4.5592
61.66	4.5597
61.68	4.5601
61.69	4.5607
61.71	4.5613
61.73	4.5618
61.75	4.5622
61.76	4.5628
61.77	4.5633
61.79	4.5639
61.80	4.5644
61.82	4.5653
61.84	4.5658
61.85	4.5664
61.87	4.5672
61.89	4.5678
61.91	4.5686
61.93	4.5693
61.94	4.5700
61.95	4.5705
61.97	4.5711
61.99	4.5716
62.01	4.5722
62.02	4.5726
62.04	4.5734
62.06	4.5736
62.07	4.5739
62.09	4.5745
62.10	4.5749
62.12	4.5754
62.14	4.5761
62.16	4.5768
62.18	4.5778
62.19	4.5784
62.21	4.5791
62.23	4.5799
62.25	4.5804
62.26	4.5807
62.27	4.5810
62.28	4.5815
62.30	4.5820
62.33	4.5825
62.34	4.5829
62.35	4.5835
62.38	4.5840
62.39	4.5844
62.41	4.5850
62.43	4.5856
62.44	4.5861
62.45	4.5865
62.47	4.5874
62.48	4.5880
62.50	4.5887
62.52	4.5894
62.54	4.5901
62.55	4.5907
62.57	4.5913
62.59	4.5921
62.60	4.5926
62.62	4.5934
62.64	4.5943
62.66	4.5945
62.68	4.5950
62.69	4.5956
62.71	4.5962
62.73	4.5968
62.74	4.5972
62.75	4.5977
62.77	4.5982
62.78	4.5986
62.80	4.5991
62.82	4.5997
62.84	4.6002
62.85	4.6008
62.87	4.6014
62.88	4.6020
62.90	4.6026
62.92	4.6034
62.93	4.6043
62.95	4.6049
62.97	4.6055
62.99	4.6060
63.00	4.6064
63.02	4.6071
63.04	4.6076
63.06	4.6078
63.08	4.6085
63.09	4.6090
63.11	4.6092
63.13	4.6097
63.14	4.6103
63.15	4.6109
63.17	4.6114
63.18	4.6120
63.20	4.6128
63.23	4.6136
63.24	4.6143
63.26	4.6150
63.27	4.6154
63.29	4.6159
63.30	4.6164
63.33	4.6172
63.34	4.6176
63.35	4.6181
63.37	4.6186
63.39	4.6191
63.40	4.6194
63.43	4.6200
63.44	4.6204
63.45	4.6209
63.47	4.6214
63.49	4.6220
63.50	4.6227
63.52	4.6236
63.54	4.6242
63.55	4.6249
63.57	4.6255
63.59	4.6259
63.61	4.6266
63.62	4.6271
63.64	4.6279
63.66	4.6283
63.68	4.6286
63.68	4.6290
63.70	4.6296
63.72	4.6301
63.74	4.6304
63.75	4.6309
63.77	4.6312
63.79	4.6317
63.80	4.6323
63.82	4.6331
63.84	4.6336
63.85	4.6345
63.87	4.6350
63.89	4.6356
63.91	4.6359
63.92	4.6365
63.94	4.6371
63.95	4.6375
63.97	4.6381
63.99	4.6386
64.01	4.6393
64.02	4.6397
64.04	4.6400
64.05	4.6404
64.07	4.6410
64.09	4.6415
64.10	4.6421
64.12	4.6429
64.14	4.6436
64.15	4.6442
64.17	4.6448
64.19	4.6453
64.20	4.6462
64.22	4.6467
64.24	4.6473
64.25	4.6480
64.27	4.6485
64.29	4.6490
64.30	4.6496
64.32	4.6500
64.34	4.6506
64.35	4.6510
64.38	4.6516
64.39	4.6522
64.40	4.6526
64.42	4.6530
64.44	4.6533
64.45	4.6542
64.47	4.6549
64.49	4.6555
64.50	4.6562
64.52	4.6567
64.54	4.6575
64.55	4.6582
64.57	4.6588
64.58	4.6593
64.60	4.6602
64.62	4.6609
64.64	4.6614
64.65	4.6621
64.67	4.6626
64.69	4.6630
64.70	4.6632
64.72	4.6637
64.74	4.6641
64.75	4.6647
64.78	4.6653
64.79	4.6657
64.80	4.6662
64.82	4.6670
64.84	4.6677
64.85	4.6684
64.88	4.6691
64.89	4.6697
64.90	4.6704
64.92	4.6712
64.94	4.6716
64.95	4.6723
64.97	4.6730
64.99	4.6736
65.01	4.6743
65.03	4.6747
65.04	4.6754
65.05	4.6758
65.07	4.6763
65.09	4.6768
65.10	4.6772
65.13	4.6777
65.14	4.6784
65.16	4.6791
65.18	4.6798
65.19	4.6805
65.20	4.6813
65.22	4.6820
65.24	4.6824
65.25	4.6832
65.27	4.6836
65.29	4.6841
65.30	4.6848
65.32	4.6854
65.34	4.6860
65.36	4.6864
65.38	4.6867
65.39	4.6873
65.41	4.6878
65.42	4.6882
65.44	4.6887
65.46	4.6895
65.47	4.6902
65.49	4.6909
65.50	4.6917
65.52	4.6922
65.54	4.6926
65.55	4.6934
65.57	4.6942
65.58	4.6946
65.60	4.6952
65.63	4.6958
65.64	4.6963
65.65	4.6967
65.67	4.6971
65.68	4.6975
65.70	4.6980
65.72	4.6985
65.74	4.6990
65.76	4.6998
65.77	4.7006
65.79	4.7011
65.81	4.7019
65.83	4.7028
65.84	4.7035
65.85	4.7041
65.88	4.7047
65.89	4.7053
65.91	4.7059
65.92	4.7065
65.94	4.7070
65.95	4.7077
65.97	4.7080
65.99	4.7087
66.00	4.7091
66.02	4.7096
66.04	4.7101
66.05	4.7107
66.07	4.7113
66.09	4.7119
66.11	4.7125
66.12	4.7129
66.13	4.7135
66.15	4.7143
66.17	4.7148
66.19	4.7155
66.20	4.7162
66.22	4.7168
66.24	4.7174
66.25	4.7181
66.27	4.7186
66.29	4.7191
66.31	4.7197
66.33	4.7203
66.34	4.7207
66.35	4.7212
66.37	4.7218
66.39	4.7224
66.40	4.7229
66.42	4.7234
66.44	4.7238
66.45	4.7242
66.47	4.7249
66.49	4.7256
66.50	4.7263
66.53	4.7269
66.54	4.7276
66.56	4.7281
66.58	4.7286
66.59	4.7291
66.60	4.7297
66.62	4.7302
66.64	4.7309
66.65	4.7313
66.67	4.7320
66.69	4.7325
66.70	4.7330
66.72	4.7336
66.74	4.7341
66.76	4.7346
66.78	4.7351
66.79	4.7355
66.81	4.7361
66.82	4.7368
66.84	4.7373
66.86	4.7381
66.87	4.7386
66.89	4.7393
66.90	4.7397
66.92	4.7402
66.94	4.7407
66.95	4.7412
66.97	4.7417
66.99	4.7423
67.01	4.7429
67.02	4.7434
67.04	4.7440
67.06	4.7445
67.08	4.7452
67.09	4.7455
67.11	4.7461
67.13	4.7467
67.14	4.7472
67.15	4.7479
67.17	4.7486
67.19	4.7493
67.21	4.7499
67.22	4.7506
67.23	4.7510
67.25	4.7515
67.27	4.7522
67.29	4.7529
67.30	4.7536
67.32	4.7541
67.34	4.7543
67.35	4.7550
67.37	4.7555
67.39	4.7560
67.40	4.7565
67.42	4.7569
67.44	4.7574
67.45	4.7580
67.47	4.7587
67.49	4.7595
67.50	4.7601
67.52	4.7607
67.53	4.7613
67.55	4.7620
67.58	4.7627
67.59	4.7632
67.60	4.7637
67.62	4.7642
67.64	4.7648
67.65	4.7651
67.67	4.7654
67.69	4.7659
67.70	4.7666
67.72	4.7669
67.74	4.7675
67.75	4.7681
67.77	4.7688
67.79	4.7691
67.80	4.7700
67.82	4.7707
67.84	4.7713
67.86	4.7721
67.88	4.7727
67.89	4.7733
67.90	4.7741
67.92	4.7747
67.94	4.7752
67.96	4.7758
67.97	4.7763
67.99	4.7771
68.00	4.7777
68.02	4.7780
68.04	4.7784
68.05	4.7789
68.07	4.7792
68.09	4.7796
68.10	4.7801
68.12	4.7810
68.14	4.7817
68.15	4.7825
68.17	4.7833
68.19	4.7836
68.20	4.7843
68.23	4.7848
68.24	4.7854
68.25	4.7860
68.27	4.7865
68.29	4.7871
68.31	4.7873
68.33	4.7879
68.34	4.7883
68.35	4.7888
68.37	4.7893
68.39	4.7898
68.40	4.7903
68.42	4.7906
68.44	4.7912
68.46	4.7919
68.47	4.7923
68.48	4.7931
68.50	4.7938
68.53	4.7944
68.54	4.7951
68.55	4.7958
68.57	4.7965
68.58	4.7971
68.60	4.7977
68.62	4.7984
68.64	4.7990
68.65	4.7995
68.67	4.7999
68.68	4.8006
68.70	4.8011
68.72	4.8015
68.73	4.8021
68.75	4.8025
68.77	4.8030
68.79	4.8036
68.80	4.8042
68.82	4.8052
68.84	4.8058
68.85	4.8065
68.87	4.8073
68.89	4.8079
68.90	4.8085
68.92	4.8092
68.94	4.8097
68.95	4.8102
68.97	4.8107
68.99	4.8113
69.00	4.8122
69.02	4.8124
69.03	4.8133
69.05	4.8140
69.07	4.8145
69.09	4.8150
69.10	4.8155
69.12	4.8160
69.14	4.8166
69.16	4.8173
69.17	4.8178
69.19	4.8187
69.20	4.8193
69.22	4.8199
69.24	4.8204
69.25	4.8211
69.28	4.8218
69.29	4.8224
69.31	4.8230
69.32	4.8236
69.34	4.8241
69.35	4.8246
69.37	4.8250
69.39	4.8256
69.40	4.8260
69.42	4.8266
69.44	4.8271
69.46	4.8276
69.47	4.8283
69.49	4.8291
69.50	4.8300
69.53	4.8308
69.54	4.8316
69.56	4.8321
69.57	4.8325
69.59	4.8334
69.60	4.8339
69.62	4.8346
69.64	4.8352
69.65	4.8357
69.67	4.8364
69.69	4.8369
69.71	4.8373
69.73	4.8378
69.74	4.8384
69.76	4.8389
69.78	4.8395
69.79	4.8403
69.81	4.8411
69.82	4.8417
69.84	4.8425
69.85	4.8433
69.87	4.8439
69.88	4.8447
69.90	4.8455
69.92	4.8462
69.94	4.8469
69.95	4.8474
69.97	4.8479
69.99	4.8484
70.00	4.8490
70.03	4.8496
70.04	4.8499
70.05	4.8505
70.07	4.8511
70.09	4.8517
70.10	4.8522
70.12	4.8527
70.13	4.8535
70.15	4.8544
70.17	4.8550
70.18	4.8556
70.20	4.8563
70.22	4.8570
70.23	4.8574
70.25	4.8580
70.27	4.8586
70.29	4.8589
70.30	4.8595
70.32	4.8600
70.34	4.8606
70.35	4.8610
70.37	4.8616
70.38	4.8621
70.40	4.8629
70.42	4.8633
70.44	4.8641
70.45	4.8648
70.47	4.8657
70.49	4.8662
70.50	4.8669
70.52	4.8676
70.54	4.8682
70.55	4.8689
70.58	4.8695
70.59	4.8700
70.60	4.8706
70.62	4.8711
70.64	4.8717
70.65	4.8724
70.67	4.8727
70.68	4.8735
70.70	4.8741
70.72	4.8745
70.73	4.8748
70.75	4.8752
70.77	4.8757
70.79	4.8763
70.80	4.8768
70.82	4.8775
70.84	4.8781
70.86	4.8787
70.87	4.8792
70.88	4.8798
70.90	4.8805
70.92	4.8810
70.93	4.8817
70.95	4.8821
70.97	4.8826
70.98	4.8832
71.00	4.8835
71.02	4.8840
71.04	4.8845
71.05	4.8847
71.07	4.8851
71.08	4.8854
71.10	4.8861
71.12	4.8865
71.13	4.8873
71.15	4.8880
71.17	4.8886
71.18	4.8892
71.20	4.8897
71.22	4.8904
71.24	4.8910
71.25	4.8915
71.27	4.8920
71.29	4.8925
71.31	4.8931
71.32	4.8936
71.33	4.8942
71.35	4.8948
71.37	4.8953
71.39	4.8958
71.41	4.8962
71.42	4.8967
71.43	4.8974
71.45	4.8982
71.47	4.8988
71.49	4.8996
71.50	4.9003
71.51	4.9011
71.53	4.9017
71.55	4.9023
71.57	4.9029
71.58	4.9035
71.60	4.9042
71.62	4.9048
71.63	4.9054
71.65	4.9059
71.67	4.9065
71.69	4.9072
71.70	4.9078
71.72	4.9083
71.74	4.9088
71.75	4.9094
71.77	4.9099
71.78	4.9106
71.80	4.9115
71.82	4.9121
71.84	4.9129
71.85	4.9135
71.87	4.9141
71.89	4.9147
71.90	4.9152
71.92	4.9158
71.93	4.9166
71.95	4.9172
71.97	4.9178
71.99	4.9183
72.00	4.9186
72.02	4.9192
72.04	4.9196
72.05	4.9200
72.07	4.9206
72.08	4.9211
72.10	4.9217
72.12	4.9225
72.14	4.9232
72.15	4.9238
72.17	4.9246
72.18	4.9251
72.20	4.9260
72.22	4.9265
72.24	4.9270
72.25	4.9278
72.26	4.9284
72.28	4.9292
72.30	4.9298
72.32	4.9302
72.34	4.9308
72.35	4.9312
72.37	4.9318
72.39	4.9324
72.40	4.9329
72.42	4.9335
72.44	4.9342
72.45	4.9347
72.47	4.9355
72.49	4.9361
72.50	4.9368
72.52	4.9374
72.53	4.9379
72.55	4.9387
72.56	4.9393
72.58	4.9401
72.60	4.9405
72.62	4.9411
72.64	4.9417
72.66	4.9421
72.67	4.9427
72.69	4.9432
72.70	4.9435
72.72	4.9439
72.74	4.9444
72.75	4.9451
72.77	4.9458
72.79	4.9465
72.80	4.9472
72.82	4.9478
72.84	4.9485
72.85	4.9492
72.87	4.9499
72.88	4.9507
72.90	4.9514
72.92	4.9520
72.94	4.9526
72.95	4.9533
72.97	4.9536
72.98	4.9542
73.00	4.9548
73.02	4.9553
73.04	4.9558
73.06	4.9564
73.08	4.9570
73.09	4.9577
73.10	4.9586
73.12	4.9594
73.14	4.9601
73.15	4.9609
73.17	4.9616
73.19	4.9621
73.20	4.9629
73.22	4.9633
73.24	4.9639
73.25	4.9645
73.27	4.9648
73.29	4.9653
73.30	4.9659
73.32	4.9663
73.34	4.9668
73.35	4.9672
73.37	4.9677
73.39	4.9683
73.41	4.9687
73.42	4.9696
73.44	4.9705
73.45	4.9713
73.47	4.9719
73.49	4.9726
73.50	4.9731
73.52	4.9737
73.54	4.9743
73.56	4.9749
73.57	4.9754
73.58	4.9760
73.60	4.9766
73.62	4.9771
73.64	4.9776
73.65	4.9782
73.67	4.9790
73.68	4.9794
73.70	4.9800
73.72	4.9806
73.74	4.9814
73.75	4.9821
73.77	4.9827
73.79	4.9834
73.81	4.9840
73.82	4.9848
73.84	4.9854
73.86	4.9860
73.88	4.9867
73.89	4.9872
73.90	4.9879
73.92	4.9884
73.94	4.9891
73.95	4.9895
73.97	4.9902
73.98	4.9906
74.01	4.9911
74.03	4.9915
74.04	4.9920
74.06	4.9925
74.08	4.9934
74.09	4.9939
74.11	4.9947
74.13	4.9953
74.14	4.9961
74.15	4.9969
74.17	4.9974
74.19	4.9981
74.21	4.9988
74.22	4.9994
74.24	5.0000
74.25	5.0005
74.27	5.0010
74.29	5.0015
74.30	5.0019
74.32	5.0025
74.33	5.0030
74.35	5.0035
74.37	5.0040
74.39	5.0045
74.40	5.0050
74.42	5.0056
74.44	5.0065
74.46	5.0072
74.48	5.0080
74.49	5.0086
74.50	5.0092
74.53	5.0097
74.54	5.0100
74.55	5.0107
74.57	5.0112
74.59	5.0121
74.60	5.0127
74.62	5.0131
74.64	5.0135
74.65	5.0140
74.67	5.0146
74.69	5.0152
74.71	5.0157
74.72	5.0163
74.74	5.0170
74.75	5.0178
74.78	5.0185
74.79	5.0193
74.80	5.0199
74.82	5.0206
74.84	5.0214
74.85	5.0218
74.87	5.0226
74.89	5.0233
74.90	5.0239
74.92	5.0246
74.94	5.0250
74.96	5.0255
74.98	5.0262
75.00	5.0266
75.01	5.0273
75.02	5.0277
75.04	5.0284
75.05	5.0289
75.07	5.0296
75.09	5.0302
75.10	5.0310
75.12	5.0315
75.14	5.0323
75.15	5.0327
75.17	5.0335
75.18	5.0339
75.20	5.0347
75.22	5.0352
75.23	5.0357
75.25	5.0362
75.27	5.0367
75.29	5.0372
75.31	5.0377
75.32	5.0383
75.34	5.0388
75.35	5.0393
75.37	5.0399
75.39	5.0404
75.41	5.0412
75.42	5.0419
75.44	5.0426
75.46	5.0433
75.48	5.0439
75.50	5.0447
75.50	5.0451
75.52	5.0459
75.54	5.0464
75.56	5.0470
75.57	5.0476
75.59	5.0481
75.60	5.0486
75.62	5.0489
75.64	5.0495
75.65	5.0501
75.67	5.0505
75.69	5.0513
75.70	5.0517
75.72	5.0525
75.73	5.0532
75.75	5.0539
75.77	5.0548
75.79	5.0555
75.81	5.0559
75.82	5.0565
75.84	5.0571
75.85	5.0577
75.88	5.0584
75.89	5.0589
75.91	5.0594
75.92	5.0598
75.94	5.0603
75.95	5.0607
75.97	5.0614
75.99	5.0620
76.00	5.0626
76.02	5.0632
76.04	5.0638
76.05	5.0648
76.07	5.0655
76.09	5.0663
76.11	5.0670
76.13	5.0677
76.14	5.0683
76.15	5.0689
76.17	5.0696
76.19	5.0703
76.20	5.0710
76.23	5.0715
76.24	5.0722
76.25	5.0730
76.27	5.0735
76.29	5.0741
76.30	5.0746
76.32	5.0753
76.34	5.0758
76.36	5.0762
76.37	5.0768
76.39	5.0775
76.41	5.0783
76.42	5.0791
76.44	5.0799
76.46	5.0806
76.48	5.0812
76.49	5.0820
76.50	5.0825
76.52	5.0834
76.54	5.0841
76.55	5.0847
76.58	5.0853
76.59	5.0859
76.61	5.0865
76.62	5.0872
76.64	5.0877
76.65	5.0883
76.67	5.0891
76.69	5.0895
76.71	5.0903
76.73	5.0911
76.74	5.0920
76.75	5.0925
76.77	5.0933
76.79	5.0941
76.80	5.0947
76.83	5.0955
76.84	5.0962
76.86	5.0967
76.88	5.0972
76.89	5.0979
76.91	5.0986
76.92	5.0991
76.94	5.0996
76.96	5.1001
76.98	5.1007
76.99	5.1012
77.00	5.1018
77.03	5.1022
77.04	5.1030
77.06	5.1038
77.08	5.1044
77.09	5.1052
77.10	5.1056
77.12	5.1065
77.14	5.1070
77.16	5.1076
77.17	5.1083
77.19	5.1090
77.21	5.1094
77.22	5.1100
77.24	5.1106
77.26	5.1108
77.28	5.1115
77.29	5.1120
77.30	5.1123
77.33	5.1130
77.34	5.1135
77.36	5.1140
77.38	5.1144
77.39	5.1153
77.41	5.1158
77.42	5.1166
77.44	5.1172
77.46	5.1177
77.47	5.1183
77.49	5.1191
77.51	5.1194
77.53	5.1198
77.54	5.1205
77.56	5.1208
77.58	5.1214
77.59	5.1222
77.60	5.1227
77.62	5.1234
77.64	5.1238
77.65	5.1245
77.67	5.1250
77.69	5.1255
77.70	5.1262
77.72	5.1269
77.74	5.1276
77.76	5.1281
77.78	5.1287
77.79	5.1293
77.81	5.1297
77.83	5.1302
77.84	5.1308
77.86	5.1312
77.88	5.1319
77.89	5.1323
77.90	5.1328
77.92	5.1333
77.94	5.1339
77.95	5.1344
77.97	5.1350
77.99	5.1357
78.00	5.1360
78.02	5.1368
78.04	5.1376
78.06	5.1381
78.07	5.1388
78.09	5.1395
78.11	5.1403
78.13	5.1408
78.14	5.1414
78.15	5.1422
78.17	5.1426
78.19	5.1432
78.21	5.1437
78.23	5.1443
78.25	5.1449
78.26	5.1455
78.28	5.1463
78.30	5.1468
78.31	5.1474
78.33	5.1478
78.34	5.1484
78.35	5.1489
78.37	5.1497
78.39	5.1504
78.41	5.1514
78.42	5.1521
78.44	5.1528
78.45	5.1534
78.47	5.1540
78.49	5.1546
78.50	5.1552
78.52	5.1559
78.54	5.1564
78.55	5.1571
78.57	5.1576
78.59	5.1582
78.60	5.1590
78.62	5.1594
78.64	5.1599
78.66	5.1606
78.67	5.1615
78.69	5.1622
78.70	5.1630
78.73	5.1639
78.74	5.1645
78.75	5.1653
78.78	5.1660
78.79	5.1666
78.80	5.1674
78.83	5.1680
78.84	5.1687
78.86	5.1693
78.87	5.1697
78.89	5.1704
78.91	5.1709
78.92	5.1716
78.94	5.1722
78.96	5.1727
78.98	5.1733
78.99	5.1739
79.00	5.1745
79.03	5.1751
79.04	5.1759
79.05	5.1765
79.07	5.1772
79.09	5.1777
79.11	5.1786
79.13	5.1793
79.14	5.1800
79.15	5.1806
79.17	5.1812
79.19	5.1816
79.21	5.1823
79.22	5.1831
79.24	5.1837
79.25	5.1841
79.27	5.1849
79.29	5.1853
79.30	5.1857
79.32	5.1865
79.34	5.1870
79.36	5.1878
79.37	5.1884
79.39	5.1890
79.40	5.1898
79.42	5.1906
79.44	5.1911
79.46	5.1918
79.48	5.1924
79.49	5.1930
79.50	5.1935
79.52	5.1942
79.54	5.1946
79.56	5.1951
79.58	5.1958
79.59	5.1964
79.61	5.1969
79.62	5.1976
79.64	5.1981
79.66	5.1986
79.67	5.1996
79.69	5.2004
79.70	5.2011
79.72	5.2020
79.74	5.2026
79.76	5.2033
79.78	5.2038
79.79	5.2044
79.80	5.2049
79.82	5.2053
79.84	5.2059
79.85	5.2064
79.88	5.2070
79.89	5.2075
79.91	5.2081
79.92	5.2088
79.94	5.2094
79.95	5.2099
79.97	5.2107
79.99	5.2114
80.01	5.2121
80.02	5.2128
80.04	5.2135
80.05	5.2141
80.07	5.2149
80.09	5.2156
80.10	5.2162
80.12	5.2170
80.14	5.2176
80.16	5.2180
80.17	5.2186
80.19	5.2190
80.20	5.2198
80.22	5.2203
80.24	5.2209
80.26	5.2217
80.27	5.2223
80.29	5.2229
80.30	5.2237
80.32	5.2244
80.34	5.2251
80.35	5.2258
80.37	5.2265
80.39	5.2272
80.40	5.2279
80.42	5.2286
80.44	5.2292
80.45	5.2300
80.48	5.2305
80.49	5.2310
80.50	5.2316
80.52	5.2322
80.54	5.2329
80.55	5.2337
80.57	5.2344
80.59	5.2350
80.60	5.2358
80.62	5.2366
80.64	5.2372
80.65	5.2378
80.67	5.2386
80.69	5.2391
80.71	5.2398
80.72	5.2405
80.74	5.2408
80.76	5.2414
80.78	5.2418
80.79	5.2426
80.81	5.2433
80.82	5.2441
80.84	5.2449
80.86	5.2456
80.87	5.2465
80.89	5.2468
80.90	5.2475
80.92	5.2483
80.94	5.2488
80.95	5.2495
80.97	5.2501
80.99	5.2506
81.00	5.2512
81.02	5.2519
81.04	5.2525
81.05	5.2534
81.08	5.2542
81.09	5.2548
81.10	5.2556
81.12	5.2564
81.14	5.2570
81.15	5.2576
81.17	5.2581
81.18	5.2585
81.20	5.2593
81.22	5.2599
81.24	5.2605
81.25	5.2613
81.27	5.2620
81.28	5.2628
81.30	5.2637
81.32	5.2644
81.33	5.2650
81.35	5.2657
81.37	5.2663
81.38	5.2670
81.40	5.2676
81.42	5.2683
81.44	5.2687
81.45	5.2694
81.47	5.2700
81.49	5.2706
81.50	5.2713
81.52	5.2718
81.53	5.2723
81.55	5.2730
81.57	5.2738
81.58	5.2744
81.60	5.2751
81.62	5.2758
81.64	5.2765
81.65	5.2769
81.67	5.2774
81.69	5.2781
81.70	5.2786
81.72	5.2792
81.73	5.2797
81.75	5.2801
81.77	5.2806
81.78	5.2811
81.80	5.2819
81.82	5.2825
81.84	5.2830
81.85	5.2837
81.87	5.2843
81.89	5.2850
81.90	5.2857
81.92	5.2862
81.94	5.2868
81.95	5.2873
81.97	5.2878
81.99	5.2883
82.00	5.2888
82.02	5.2893
82.03	5.2895
82.05	5.2900
82.07	5.2904
82.09	5.2912
82.10	5.2918
82.12	5.2924
82.14	5.2930
82.15	5.2935
82.17	5.2943
82.18	5.2947
82.20	5.2951
82.22	5.2956
82.23	5.2963
82.25	5.2967
82.27	5.2973
82.28	5.2977
82.30	5.2984
82.32	5.2989
82.33	5.2995
82.34	5.3001
82.36	5.3007
82.38	5.3014
82.40	5.3020
82.41	5.3026
82.43	5.3029
82.45	5.3037
82.46	5.3042
82.48	5.3047
82.50	5.3052
82.52	5.3056
82.53	5.3060
82.55	5.3065
82.57	5.3070
82.58	5.3076
82.59	5.3084
82.62	5.3091
82.63	5.3096
82.64	5.3103
82.67	5.3110
82.68	5.3115
82.70	5.3120
82.71	5.3127
82.73	5.3132
82.75	5.3137
82.77	5.3144
82.79	5.3148
82.80	5.3152
82.82	5.3157
82.83	5.3163
82.85	5.3171
82.87	5.3179
82.88	5.3184
82.90	5.3191
82.92	5.3199
82.93	5.3203
82.95	5.3211
82.96	5.3216
82.98	5.3220
83.00	5.3226
83.01	5.3232
83.03	5.3237
83.05	5.3242
83.07	5.3247
83.08	5.3254
83.10	5.3262
83.11	5.3270
83.13	5.3278
83.15	5.3287
83.17	5.3294
83.18	5.3299
83.20	5.3304
83.22	5.3311
83.23	5.3316
83.25	5.3323
83.27	5.3329
83.28	5.3335
83.30	5.3341
83.32	5.3346
83.33	5.3351
83.34	5.3360
83.36	5.3367
83.38	5.3372
83.40	5.3380
83.42	5.3387
83.43	5.3391
83.45	5.3397
83.46	5.3402
83.48	5.3409
83.50	5.3415
83.51	5.3422
83.53	5.3427
83.55	5.3435
83.57	5.3441
83.58	5.3448
83.59	5.3455
83.61	5.3463
83.63	5.3472
83.64	5.3480
83.66	5.3487
83.68	5.3496
83.70	5.3503
83.71	5.3510
83.73	5.3517
83.75	5.3525
83.76	5.3528
83.78	5.3534
83.80	5.3541
83.81	5.3545
83.83	5.3551
83.84	5.3555
83.86	5.3562
83.88	5.3569
83.89	5.3576
83.92	5.3582
83.93	5.3590
83.95	5.3594
83.96	5.3600
83.98	5.3608
84.00	5.3614
84.01	5.3618
84.03	5.3622
84.04	5.3628
84.06	5.3633
84.08	5.3635
84.10	5.3641
84.11	5.3647
84.13	5.3654
84.14	5.3660
84.16	5.3666
84.17	5.3672
84.19	5.3677
84.21	5.3684
84.23	5.3690
84.25	5.3699
84.26	5.3703
84.28	5.3708
84.29	5.3715
84.31	5.3720
84.33	5.3726
84.34	5.3732
84.36	5.3739
84.38	5.3747
84.39	5.3755
84.41	5.3761
84.43	5.3770
84.45	5.3779
84.46	5.3786
84.48	5.3793
84.49	5.3801
84.51	5.3807
84.53	5.3814
84.55	5.3822
84.56	5.3827
84.58	5.3834
84.59	5.3839
84.62	5.3847
84.63	5.3857
84.64	5.3864
84.65	5.3872
84.67	5.3879
84.69	5.3888
84.71	5.3896
84.73	5.3901
84.75	5.3908
84.76	5.3916
84.78	5.3922
84.80	5.3928
84.81	5.3934
84.83	5.3941
84.84	5.3946
84.86	5.3954
84.88	5.3962
84.90	5.3971
84.92	5.3982
84.93	5.3989
84.94	5.3998
84.96	5.4004
84.98	5.4013
84.99	5.4019
85.01	5.4025
85.03	5.4034
85.04	5.4041
85.06	5.4045
85.08	5.4051
85.09	5.4058
85.11	5.4065
85.12	5.4071
85.14	5.4080
85.16	5.4087
85.17	5.4095
85.19	5.4104
85.21	5.4114
85.23	5.4117
85.24	5.4124
85.26	5.4130
85.28	5.4138
85.29	5.4144
85.31	5.4150
85.33	5.4156
85.34	5.4160
85.36	5.4165
85.38	5.4172
85.39	5.4180
85.41	5.4188
85.42	5.4194
85.44	5.4201
85.46	5.4207
85.48	5.4212
85.50	5.4218
85.51	5.4223
85.53	5.4228
85.54	5.4233
85.56	5.4239
85.58	5.4243
85.59	5.4250
85.61	5.4255
85.63	5.4263
85.64	5.4269
85.66	5.4275
85.67	5.4282
85.69	5.4288
85.71	5.4294
85.72	5.4300
85.74	5.4308
85.76	5.4312
85.78	5.4318
85.79	5.4324
85.81	5.4327
85.83	5.4334
85.84	5.4339
85.86	5.4345
85.88	5.4350
85.89	5.4356
85.91	5.4364
85.92	5.4369
85.94	5.4375
85.95	5.4381
85.97	5.4388
85.99	5.4396
86.00	5.4402
86.02	5.4409
86.04	5.4415
86.06	5.4420
86.08	5.4427
86.09	5.4433
86.10	5.4439
86.12	5.4445
86.14	5.4452
86.15	5.4458
86.17	5.4467
86.19	5.4476
86.21	5.4484
86.22	5.4492
86.24	5.4499
86.26	5.4507
86.28	5.4514
86.29	5.4520
86.31	5.4526
86.33	5.4533
86.34	5.4540
86.35	5.4547
86.37	5.4551
86.39	5.4560
86.40	5.4569
86.42	5.4577
86.44	5.4587
86.46	5.4595
86.47	5.4604
86.49	5.4613
86.50	5.4619
86.52	5.4624
86.53	5.4629
86.55	5.4637
86.57	5.4644
86.59	5.4650
86.60	5.4658
86.62	5.4665
86.64	5.4671
86.65	5.4678
86.67	5.4683
86.69	5.4691
86.70	5.4700
86.73	5.4710
86.74	5.4715
86.75	5.4723
86.77	5.4728
86.78	5.4735
86.80	5.4742
86.82	5.4751
86.84	5.4757
86.85	5.4763
86.87	5.4770
86.89	5.4778
86.90	5.4785
86.92	5.4793
86.93	5.4801
86.95	5.4809
86.97	5.4816
86.98	5.4823
87.00	5.4829
87.02	5.4835
87.03	5.4842
87.05	5.4847
87.07	5.4854
87.09	5.4861
87.10	5.4866
87.13	5.4871
87.14	5.4878
87.15	5.4884
87.17	5.4890
87.19	5.4897
87.20	5.4905
87.22	5.4913
87.24	5.4921
87.25	5.4928
87.26	5.4935
87.29	5.4941
87.30	5.4946
87.32	5.4953
87.33	5.4959
87.35	5.4964
87.37	5.4969
87.38	5.4974
87.40	5.4980
87.42	5.4986
87.44	5.4994
87.45	5.5003
87.47	5.5010
87.48	5.5018
87.50	5.5024
87.52	5.5031
87.53	5.5035
87.55	5.5042
87.57	5.5048
87.58	5.5054
87.60	5.5061
87.62	5.5066
87.63	5.5071
87.65	5.5078
87.67	5.5083
87.68	5.5090
87.70	5.5099
87.72	5.5106
87.73	5.5114
87.75	5.5121
87.77	5.5128
87.78	5.5134
87.80	5.5142
87.82	5.5146
87.83	5.5153
87.85	5.5159
87.87	5.5167
87.88	5.5174
87.90	5.5179
87.92	5.5186
87.94	5.5195
87.95	5.5202
87.97	5.5210
87.99	5.5218
88.00	5.5224
88.01	5.5230
88.03	5.5239
88.05	5.5245
88.07	5.5252
88.08	5.5257
88.10	5.5264
88.12	5.5271
88.13	5.5277
88.14	5.5282
88.16	5.5289
88.18	5.5294
88.20	5.5301
88.22	5.5308
88.23	5.5318
88.25	5.5326
88.26	5.5332
88.28	5.5339
88.30	5.5345
88.32	5.5352
88.33	5.5358
88.35	5.5365
88.36	5.5370
88.38	5.5376
88.39	5.5382
88.42	5.5387
88.43	5.5394
88.45	5.5401
88.47	5.5410
88.48	5.5418
88.50	5.5423
88.52	5.5431
88.53	5.5435
88.55	5.5443
88.57	5.5450
88.58	5.5456
88.59	5.5463
88.61	5.5471
88.63	5.5477
88.64	5.5484
88.66	5.5492
88.68	5.5500
88.70	5.5507
88.71	5.5516
88.73	5.5525
88.75	5.5533
88.77	5.5542
88.78	5.5549
88.80	5.5558
88.81	5.5565
88.83	5.5570
88.84	5.5579
88.86	5.5585
88.88	5.5592
88.89	5.5599
88.91	5.5606
88.93	5.5614
88.95	5.5619
88.97	5.5627
88.98	5.5634
88.99	5.5641
89.01	5.5647
89.03	5.5657
89.05	5.5665
89.06	5.5673
89.08	5.5679
89.09	5.5687
89.11	5.5695
89.13	5.5700
89.14	5.5705
89.16	5.5711
89.18	5.5717
89.20	5.5724
89.21	5.5731
89.23	5.5739
89.25	5.5746
89.26	5.5755
89.28	5.5763
89.29	5.5770
89.31	5.5777
89.33	5.5783
89.34	5.5789
89.36	5.5795
89.38	5.5802
89.39	5.5807
89.41	5.5814
89.42	5.5819
89.44	5.5827
89.46	5.5835
89.48	5.5841
89.50	5.5851
89.51	5.5858
89.53	5.5865
89.54	5.5873
89.56	5.5881
89.58	5.5889
89.59	5.5897
89.61	5.5903
89.63	5.5911
89.64	5.5917
89.66	5.5923
89.67	5.5928
89.70	5.5936
89.71	5.5941
89.73	5.5947
89.74	5.5954
89.76	5.5961
89.78	5.5968
89.79	5.5977
89.81	5.5986
89.83	5.5992
89.84	5.6000
89.86	5.6006
89.88	5.6010
89.89	5.6018
89.91	5.6023
89.92	5.6029
89.94	5.6036
89.95	5.6042
89.97	5.6049
89.99	5.6057
90.01	5.6065
90.03	5.6072
90.04	5.6077
90.06	5.6084
90.08	5.6090
90.09	5.6098
90.11	5.6105
90.13	5.6112
90.13	5.6118
90.15	5.6123
90.17	5.6131
90.19	5.6137
90.20	5.6145
90.23	5.6154
90.24	5.6163
90.25	5.6172
90.28	5.6179
90.29	5.6186
90.31	5.6193
90.32	5.6199
90.34	5.6207
90.35	5.6214
90.37	5.6219
90.39	5.6226
90.40	5.6233
90.42	5.6238
90.44	5.6244
90.45	5.6250
90.47	5.6256
90.48	5.6265
90.50	5.6273
90.52	5.6279
90.53	5.6287
90.55	5.6294
90.57	5.6303
90.59	5.6308
90.60	5.6314
90.62	5.6322
90.63	5.6328
90.65	5.6335
90.67	5.6339
90.69	5.6345
90.70	5.6352
90.72	5.6360
90.74	5.6368
90.75	5.6375
90.77	5.6381
90.79	5.6388
90.81	5.6394
90.82	5.6402
90.84	5.6408
90.86	5.6413
90.87	5.6421
90.88	5.6429
90.90	5.6435
90.91	5.6443
90.94	5.6449
90.95	5.6455
90.97	5.6463
90.98	5.6470
91.00	5.6478
91.02	5.6484
91.04	5.6492
91.05	5.6500
91.08	5.6507
91.09	5.6514
91.10	5.6519
91.12	5.6524
91.14	5.6531
91.15	5.6538
91.17	5.6544
91.19	5.6550
91.20	5.6557
91.22	5.6564
91.23	5.6572
91.25	5.6581
91.27	5.6589
91.28	5.6598
91.30	5.6608
91.32	5.6614
91.34	5.6623
91.36	5.6632
91.37	5.6639
91.39	5.6648
91.40	5.6655
91.42	5.6661
91.43	5.6670
91.45	5.6676
91.47	5.6682
91.49	5.6689
91.50	5.6698
91.52	5.6707
91.54	5.6716
91.55	5.6725
91.57	5.6735
91.59	5.6741
91.60	5.6749
91.63	5.6754
91.64	5.6764
91.65	5.6770
91.67	5.6775
91.69	5.6784
91.70	5.6789
91.72	5.6796
91.74	5.6807
91.75	5.6815
91.77	5.6824
91.78	5.6834
91.80	5.6842
91.82	5.6847
91.84	5.6858
91.85	5.6866
91.87	5.6873
91.88	5.6881
91.90	5.6889
91.92	5.6894
91.94	5.6901
91.95	5.6907
91.95	5.6913
91.98	5.6920
92.00	5.6928
92.02	5.6935
92.03	5.6944
92.05	5.6953
92.07	5.6961
92.08	5.6968
92.10	5.6976
92.12	5.6984
92.14	5.6991
92.15	5.6998
92.17	5.7004
92.19	5.7010
92.20	5.7016
92.22	5.7022
92.24	5.7029
92.25	5.7036
92.27	5.7045
92.28	5.7053
92.30	5.7061
92.32	5.7067
92.33	5.7076
92.35	5.7081
92.37	5.7086
92.39	5.7095
92.40	5.7101
92.42	5.7107
92.43	5.7114
92.45	5.7121
92.47	5.7128
92.48	5.7132
92.50	5.7142
92.52	5.7148
92.54	5.7157
92.55	5.7166
92.57	5.7174
92.58	5.7182
92.60	5.7190
92.62	5.7197
92.63	5.7204
92.65	5.7211
92.67	5.7216
92.68	5.7221
92.70	5.7227
92.72	5.7232
92.73	5.7239
92.75	5.7247
92.77	5.7254
92.78	5.7261
92.80	5.7269
92.82	5.7275
92.83	5.7284
92.85	5.7291
92.87	5.7297
92.89	5.7303
92.90	5.7311
92.92	5.7316
92.93	5.7321
92.95	5.7329
92.97	5.7335
92.98	5.7341
93.00	5.7347
93.01	5.7357
93.03	5.7363
93.05	5.7372
93.07	5.7380
93.08	5.7387
93.10	5.7395
93.12	5.7403
93.14	5.7410
93.15	5.7417
93.17	5.7422
93.18	5.7428
93.20	5.7435
93.22	5.7443
93.23	5.7448
93.25	5.7455
93.27	5.7463
93.29	5.7471
93.30	5.7480
93.31	5.7485
93.33	5.7493
93.35	5.7502
93.36	5.7509
93.38	5.7517
93.40	5.7523
93.42	5.7532
93.44	5.7538
93.45	5.7545
93.47	5.7552
93.48	5.7558
93.50	5.7565
93.51	5.7572
93.53	5.7581
93.55	5.7591
93.56	5.7596
93.58	5.7605
93.59	5.7613
93.62	5.7621
93.63	5.7629
93.65	5.7636
93.67	5.7643
93.68	5.7649
93.70	5.7654
93.71	5.7662
93.73	5.7667
93.75	5.7674
93.77	5.7682
93.78	5.7691
93.80	5.7699
93.82	5.7705
93.84	5.7713
93.85	5.7720
93.87	5.7726
93.88	5.7736
93.89	5.7742
93.91	5.7751
93.93	5.7760
93.95	5.7766
93.97	5.7774
93.98	5.7780
94.00	5.7785
94.01	5.7793
94.03	5.7800
94.05	5.7808
94.07	5.7816
94.08	5.7823
94.10	5.7830
94.12	5.7838
94.13	5.7845
94.15	5.7853
94.16	5.7860
94.17	5.7868
94.20	5.7876
94.21	5.7883
94.23	5.7891
94.25	5.7897
94.26	5.7905
94.28	5.7914
94.30	5.7920
94.31	5.7931
94.33	5.7938
94.35	5.7944
94.36	5.7955
94.38	5.7960
94.39	5.7969
94.41	5.7976
94.43	5.7983
94.45	5.7990
94.47	5.7996
94.48	5.8001
94.50	5.8009
94.52	5.8016
94.53	5.8025
94.55	5.8034
94.56	5.8041
94.58	5.8051
94.59	5.8061
94.61	5.8068
94.63	5.8077
94.64	5.8084
94.66	5.8092
94.68	5.8099
94.70	5.8107
94.71	5.8113
94.73	5.8120
94.75	5.8127
94.76	5.8135
94.78	5.8142
94.80	5.8149
94.81	5.8156
94.83	5.8164
94.85	5.8173
94.86	5.8180
94.88	5.8188
94.89	5.8193
94.91	5.8201
94.93	5.8206
94.94	5.8215
94.96	5.8220
94.98	5.8226
95.00	5.8233
95.01	5.8238
95.03	5.8246
95.05	5.8252
95.06	5.8259
95.08	5.8268
95.09	5.8274
95.11	5.8283
95.13	5.8290
95.14	5.8295
95.16	5.8303
95.18	5.8308
95.20	5.8316
95.22	5.8324
95.23	5.8330
95.25	5.8338
95.26	5.8343
95.28	5.8350
95.30	5.8357
95.31	5.8365
95.33	5.8373
95.34	5.8379
95.36	5.8387
95.38	5.8394
95.39	5.8402
95.41	5.8411
95.43	5.8420
95.44	5.8425
95.46	5.8433
95.48	5.8440
95.50	5.8447
95.51	5.8454
95.53	5.8462
95.54	5.8471
95.56	5.8482
95.58	5.8490
95.59	5.8501
95.61	5.8508
95.63	5.8517
95.64	5.8525
95.66	5.8533
95.67	5.8542
95.69	5.8549
95.71	5.8558
95.73	5.8566
95.74	5.8574
95.75	5.8581
95.77	5.8591
95.80	5.8601
95.81	5.8609
95.83	5.8618
95.84	5.8627
95.86	5.8638
95.88	5.8646
95.89	5.8655
95.91	5.8665
95.93	5.8674
95.94	5.8682
95.96	5.8690
95.98	5.8697
95.99	5.8705
96.01	5.8714
96.03	5.8724
96.04	5.8731
96.06	5.8741
96.08	5.8750
96.09	5.8756
96.11	5.8765
96.13	5.8772
96.14	5.8779
96.16	5.8787
96.17	5.8796
96.19	5.8800
96.21	5.8805
96.23	5.8812
96.24	5.8818
96.26	5.8825
96.28	5.8833
96.29	5.8837
96.31	5.8846
96.33	5.8852
96.34	5.8858
96.36	5.8867
96.38	5.8874
96.39	5.8882
96.41	5.8888
96.42	5.8895
96.44	5.8902
96.46	5.8908
96.48	5.8911
96.50	5.8917
96.51	5.8920
96.53	5.8926
96.54	5.8930
96.56	5.8938
96.58	5.8945
96.59	5.8954
96.61	5.8961
96.63	5.8965
96.64	5.8972
96.65	5.8979
96.67	5.8986
96.69	5.8994
96.71	5.9001
96.73	5.9008
96.74	5.9014
96.76	5.9022
96.78	5.9028
96.80	5.9033
96.81	5.9043
96.83	5.9053
96.84	5.9059
96.85	5.9065
96.88	5.9073
96.89	5.9080
96.91	5.9087
96.92	5.9096
96.94	5.9104
96.95	5.9113
96.98	5.9121
96.99	5.9128
97.01	5.9134
97.03	5.9143
97.04	5.9154
97.06	5.9163
97.08	5.9171
97.09	5.9180
97.11	5.9191
97.12	5.9202
97.14	5.9212
97.15	5.9219
97.17	5.9229
97.19	5.9237
97.21	5.9246
97.22	5.9257
97.24	5.9264
97.26	5.9273
97.28	5.9281
97.30	5.9288
97.31	5.9296
97.33	5.9305
97.34	5.9313
97.36	5.9321
97.38	5.9330
97.39	5.9340
97.41	5.9349
97.42	5.9357
97.44	5.9364
97.46	5.9371
97.48	5.9378
97.49	5.9386
97.50	5.9395
97.52	5.9405
97.54	5.9413
97.56	5.9423
97.58	5.9433
97.59	5.9442
97.61	5.9453
97.63	5.9463
97.64	5.9471
97.65	5.9480
97.68	5.9489
97.70	5.9498
97.71	5.9505
97.73	5.9514
97.74	5.9521
97.76	5.9527
97.78	5.9534
97.80	5.9541
97.81	5.9551
97.83	5.9561
97.84	5.9571
97.86	5.9582
97.88	5.9591
97.89	5.9602
97.90	5.9610
97.92	5.9618
97.94	5.9625
97.96	5.9633
97.98	5.9642
97.99	5.9648
98.00	5.9656
98.03	5.9662
98.04	5.9668
98.05	5.9676
98.08	5.9685
98.09	5.9693
98.11	5.9704
98.13	5.9713
98.14	5.9720
98.16	5.9726
98.17	5.9736
98.20	5.9741
98.21	5.9751
98.22	5.9759
98.25	5.9765
98.26	5.9772
98.28	5.9781
98.30	5.9785
98.31	5.9792
98.33	5.9799
98.34	5.9806
98.36	5.9815
98.38	5.9824
98.39	5.9831
98.41	5.9838
98.42	5.9845
98.44	5.9852
98.46	5.9859
98.48	5.9867
98.49	5.9873
98.51	5.9881
98.53	5.9889
98.54	5.9894
98.56	5.9902
98.58	5.9911
98.59	5.9919
98.61	5.9926
98.63	5.9931
98.64	5.9940
98.66	5.9948
98.67	5.9954
98.69	5.9960
98.71	5.9967
98.73	5.9974
98.74	5.9981
98.76	5.9988
98.78	5.9993
98.80	6.0001
98.81	6.0008
98.83	6.0017
98.84	6.0024
98.85	6.0032
98.88	6.0041
98.89	6.0048
98.91	6.0055
98.92	6.0061
98.94	6.0068
98.95	6.0076
98.97	6.0082
98.99	6.0089
99.00	6.0094
99.03	6.0102
99.04	6.0110
99.05	6.0117
99.07	6.0124
99.09	6.0131
99.11	6.0140
99.13	6.0147
99.14	6.0157
99.16	6.0164
99.17	6.0172
99.19	6.0181
99.20	6.0188
99.22	6.0194
99.24	6.0202
99.25	6.0210
99.27	6.0216
99.29	6.0223
99.30	6.0230
99.32	6.0238
99.34	6.0244
99.36	6.0254
99.38	6.0264
99.39	6.0274
99.40	6.0283
99.42	6.0292
99.44	6.0303
99.46	6.0311
99.48	6.0318
99.49	6.0325
99.50	6.0334
99.53	6.0343
99.54	6.0351
99.55	6.0358
99.57	6.0366
99.59	6.0375
99.60	6.0383
99.62	6.0392
99.64	6.0401
99.65	6.0411
99.67	6.0418
99.69	6.0427
99.70	6.0435
99.72	6.0442
99.73	6.0452
99.75	6.0462
99.77	6.0469
99.79	6.0474
99.80	6.0482
99.83	6.0489
99.84	6.0497
99.85	6.0505
99.87	6.0513
99.89	6.0523
99.90	6.0532
99.92	6.0539
99.94	6.0548
99.95	6.0557
99.97	6.0563
99.99	6.0569
100.00	6.0578
100.02	6.0584
100.04	6.0592
100.05	6.0601
100.07	6.0608
100.08	6.0617
100.10	6.0625
100.12	6.0634
100.14	6.0643
100.16	6.0651
100.17	6.0659
100.19	6.0665
100.21	6.0674
100.22	6.0680
100.24	6.0687
100.26	6.0694
100.28	6.0703
100.29	6.0711
100.30	6.0717
100.32	6.0723
100.34	6.0732
100.35	6.0742
100.37	6.0752
100.39	6.0763
100.40	6.0771
100.42	6.0779
100.44	6.0787
100.45	6.0796
100.47	6.0802
100.49	6.0810
100.50	6.0818
100.52	6.0827
100.54	6.0833
100.55	6.0840
100.57	6.0847
100.59	6.0855
100.60	6.0863
100.62	6.0870
100.64	6.0880
100.65	6.0889
100.68	6.0901
100.69	6.0909
100.70	6.0915
100.72	6.0923
100.74	6.0928
100.75	6.0936
100.77	6.0944
100.78	6.0951
100.80	6.0961
100.82	6.0965
100.84	6.0974
100.85	6.0981
100.87	6.0991
100.89	6.0999
100.90	6.1007
100.92	6.1017
100.94	6.1025
100.95	6.1034
100.97	6.1042
100.99	6.1049
101.00	6.1059
101.02	6.1069
101.04	6.1076
101.05	6.1084
101.07	6.1089
101.08	6.1093
101.10	6.1102
101.12	6.1110
101.14	6.1118
101.15	6.1126
101.17	6.1129
101.18	6.1140
101.20	6.1150
101.22	6.1156
101.23	6.1163
101.25	6.1171
101.27	6.1179
101.28	6.1187
101.30	6.1195
101.32	6.1200
101.33	6.1206
101.35	6.1217
101.37	6.1224
101.39	6.1232
101.41	6.1243
101.42	6.1251
101.43	6.1258
101.45	6.1268
101.47	6.1276
101.49	6.1285
101.50	6.1291
101.52	6.1298
101.53	6.1306
101.55	6.1315
101.57	6.1321
101.59	6.1330
101.61	6.1339
101.62	6.1350
101.64	6.1357
101.65	6.1365
101.67	6.1374
101.68	6.1383
101.70	6.1390
101.72	6.1398
101.74	6.1408
101.75	6.1416
101.77	6.1424
101.79	6.1432
101.80	6.1441
101.83	6.1451
101.84	6.1459
101.85	6.1468
101.88	6.1474
101.89	6.1485
101.90	6.1496
101.92	6.1504
101.94	6.1513
101.95	6.1521
101.97	6.1530
101.98	6.1538
102.00	6.1546
102.02	6.1551
102.04	6.1561
102.05	6.1569
102.07	6.1576
102.09	6.1584
102.10	6.1592
102.12	6.1599
102.14	6.1609
102.15	6.1619
102.17	6.1627
102.19	6.1637
102.20	6.1646
102.22	6.1654
102.24	6.1663
102.26	6.1673
102.27	6.1679
102.29	6.1687
102.30	6.1694
102.32	6.1696
102.34	6.1704
102.35	6.1711
102.37	6.1719
102.39	6.1728
102.40	6.1737
102.42	6.1746
102.44	6.1756
102.45	6.1764
102.47	6.1768
102.49	6.1776
102.50	6.1782
102.52	6.1790
102.53	6.1797
102.55	6.1802
102.57	6.1809
102.59	6.1817
102.60	6.1826
102.62	6.1832
102.63	6.1842
102.65	6.1852
102.67	6.1859
102.69	6.1868
102.70	6.1876
102.72	6.1884
102.73	6.1893
102.75	6.1898
102.77	6.1903
102.79	6.1909
102.80	6.1916
102.82	6.1921
102.83	6.1930
102.85	6.1938
102.87	6.1946
102.88	6.1955
102.90	6.1964
102.92	6.1972
102.94	6.1980
102.95	6.1988
102.97	6.1993
102.99	6.2000
103.01	6.2009
103.02	6.2013
103.04	6.2023
103.05	6.2031
103.07	6.2039
103.08	6.2046
103.10	6.2055
103.12	6.2062
103.13	6.2070
103.15	6.2079
103.17	6.2087
103.18	6.2098
103.20	6.2105
103.22	6.2113
103.23	6.2120
103.25	6.2127
103.27	6.2137
103.28	6.2145
103.30	6.2151
103.32	6.2159
103.34	6.2166
103.35	6.2174
103.37	6.2181
103.39	6.2190
103.40	6.2199
103.42	6.2208
103.44	6.2216
103.45	6.2225
103.47	6.2231
103.48	6.2238
103.50	6.2248
103.52	6.2258
103.53	6.2265
103.55	6.2275
103.57	6.2281
103.59	6.2288
103.60	6.2297
103.62	6.2306
103.63	6.2315
103.65	6.2322
103.67	6.2329
103.69	6.2338
103.70	6.2343
103.72	6.2352
103.74	6.2361
103.75	6.2367
103.77	6.2377
103.78	6.2388
103.80	6.2394
103.82	6.2401
103.84	6.2409
103.85	6.2418
103.87	6.2428
103.89	6.2436
103.90	6.2444
103.92	6.2451
103.94	6.2459
103.95	6.2468
103.97	6.2477
103.98	6.2486
104.00	6.2495
104.02	6.2504
104.03	6.2513
104.05	6.2522
104.07	6.2530
104.09	6.2536
104.10	6.2546
104.12	6.2555
104.13	6.2566
104.15	6.2575
104.17	6.2586
104.18	6.2598
104.20	6.2606
104.22	6.2613
104.23	6.2622
104.25	6.2631
104.26	6.2640
104.28	6.2650
104.30	6.2657
104.32	6.2665
104.34	6.2674
104.35	6.2681
104.37	6.2689
104.38	6.2698
104.40	6.2710
104.42	6.2719
104.43	6.2728
104.45	6.2737
104.47	6.2744
104.49	6.2754
104.50	6.2761
104.52	6.2769
104.53	6.2776
104.55	6.2784
104.57	6.2792
104.58	6.2802
104.60	6.2808
104.62	6.2816
104.63	6.2825
104.65	6.2835
104.66	6.2844
104.68	6.2853
104.70	6.2862
104.72	6.2871
104.73	6.2879
104.75	6.2888
104.77	6.2896
104.78	6.2904
104.80	6.2908
104.82	6.2916
104.83	6.2924
104.85	6.2931
104.87	6.2940
104.88	6.2949
104.90	6.2956
104.92	6.2963
104.93	6.2975
104.95	6.2982
104.97	6.2990
104.98	6.2999
105.00	6.3006
105.02	6.3013
105.03	6.3023
105.05	6.3031
105.06	6.3039
105.08	6.3048
105.10	6.3055
105.12	6.3062
105.13	6.3071
105.15	6.3080
105.16	6.3088
105.18	6.3098
105.20	6.3107
105.21	6.3116
105.23	6.3125
105.25	6.3133
105.27	6.3139
105.28	6.3148
105.30	6.3156
105.32	6.3163
105.33	6.3171
105.35	6.3178
105.37	6.3188
105.38	6.3196
105.40	6.3206
105.42	6.3214
105.43	6.3224
105.45	6.3230
105.47	6.3238
105.48	6.3245
105.50	6.3254
105.51	6.3262
105.53	6.3269
105.55	6.3277
105.56	6.3285
105.58	6.3292
105.60	6.3299
105.62	6.3308
105.63	6.3317
105.65	6.3325
105.67	6.3332
105.68	6.3341
105.70	6.3349
105.71	6.3358
105.73	6.3366
105.75	6.3375
105.76	6.3382
105.78	6.3392
105.80	6.3397
105.81	6.3406
105.83	6.3414
105.85	6.3422
105.87	6.3431
105.88	6.3441
105.90	6.3450
105.91	6.3460
105.93	6.3468
105.95	6.3477
105.97	6.3484
105.98	6.3493
106.00	6.3499
106.02	6.3509
106.03	6.3518
106.05	6.3527
106.07	6.3533
106.08	6.3545
106.10	6.3555
106.11	6.3563
106.13	6.3574
106.14	6.3584
106.16	6.3594
106.18	6.3604
106.20	6.3615
106.22	6.3623
106.23	6.3633
106.25	6.3640
106.26	6.3647
106.28	6.3655
106.30	6.3663
106.31	6.3670
106.33	6.3678
106.35	6.3686
106.36	6.3696
106.38	6.3706
106.40	6.3715
106.41	6.3726
106.43	6.3736
106.45	6.3745
106.46	6.3753
106.48	6.3762
106.50	6.3770
106.51	6.3780
106.53	6.3788
106.55	6.3797
106.56	6.3806
106.58	6.3812
106.60	6.3821
106.61	6.3826
106.63	6.3835
106.64	6.3842
106.66	6.3853
106.68	6.3863
106.70	6.3871
106.71	6.3880
106.73	6.3889
106.75	6.3896
106.77	6.3905
106.78	6.3913
106.79	6.3922
106.81	6.3929
106.83	6.3937
106.84	6.3944
106.86	6.3953
106.88	6.3962
106.90	6.3970
106.91	6.3980
106.93	6.3990
106.94	6.3997
106.96	6.4004
106.98	6.4012
107.00	6.4021
107.01	6.4028
107.03	6.4036
107.04	6.4045
107.05	6.4052
107.08	6.4059
107.10	6.4065
107.11	6.4073
107.13	6.4083
107.15	6.4092
107.16	6.4101
107.18	6.4109
107.20	6.4116
107.21	6.4124
107.23	6.4133
107.24	6.4140
107.26	6.4149
107.28	6.4158
107.29	6.4164
107.31	6.4171
107.33	6.4180
107.34	6.4184
107.36	6.4193
107.38	6.4201
107.39	6.4209
107.41	6.4219
107.43	6.4228
107.45	6.4235
107.46	6.4243
107.48	6.4251
107.49	6.4256
107.51	6.4263
107.53	6.4269
107.54	6.4278
107.56	6.4285
107.58	6.4292
107.60	6.4300
107.61	6.4307
107.63	6.4315
107.64	6.4324
107.66	6.4334
107.68	6.4343
107.69	6.4349
107.71	6.4357
107.73	6.4365
107.74	6.4371
107.76	6.4380
107.78	6.4388
107.79	6.4394
107.81	6.4403
107.83	6.4409
107.84	6.4416
107.86	6.4424
107.88	6.4434
107.89	6.4443
107.91	6.4452
107.93	6.4462
107.94	6.4471
107.96	6.4480
107.98	6.4488
107.99	6.4496
108.01	6.4506
108.03	6.4513
108.04	6.4523
108.06	6.4531
108.08	6.4539
108.09	6.4547
108.11	6.4555
108.13	6.4564
108.15	6.4572
108.16	6.4582
108.17	6.4592
108.19	6.4600
108.20	6.4609
108.23	6.4619
108.25	6.4626
108.26	6.4633
108.28	6.4642
108.29	6.4649
108.31	6.4659
108.33	6.4668
108.34	6.4676
108.36	6.4685
108.38	6.4692
108.39	6.4700
108.41	6.4712
108.43	6.4720
108.44	6.4729
108.46	6.4739
108.48	6.4748
108.49	6.4758
108.51	6.4767
108.53	6.4775
108.54	6.4783
108.55	6.4793
108.58	6.4799
108.59	6.4808
108.60	6.4816
108.63	6.4825
108.64	6.4837
108.66	6.4845
108.68	6.4853
108.70	6.4862
108.71	6.4872
108.73	6.4881
108.74	6.4888
108.76	6.4895
108.77	6.4900
108.79	6.4907
108.81	6.4913
108.83	6.4922
108.84	6.4929
108.85	6.4936
108.87	6.4947
108.89	6.4956
108.91	6.4968
108.92	6.4977
108.94	6.4989
108.96	6.4997
108.98	6.5006
108.99	6.5013
109.01	6.5018
109.03	6.5026
109.04	6.5033
109.06	6.5041
109.08	6.5048
109.09	6.5057
109.11	6.5064
109.12	6.5070
109.14	6.5078
109.16	6.5085
109.18	6.5093
109.19	6.5103
109.21	6.5112
109.22	6.5121
109.23	6.5128
109.26	6.5138
109.28	6.5145
109.29	6.5153
109.31	6.5161
109.33	6.5167
109.34	6.5176
109.36	6.5183
109.38	6.5193
109.39	6.5200
109.40	6.5212
109.43	6.5221
109.44	6.5231
109.45	6.5240
109.48	6.5248
109.49	6.5258
109.51	6.5265
109.53	6.5274
109.54	6.5283
109.55	6.5292
109.58	6.5300
109.59	6.5308
109.61	6.5317
109.63	6.5326
109.64	6.5335
109.65	6.5342
109.68	6.5350
109.70	6.5357
109.71	6.5367
109.73	6.5377
109.74	6.5386
109.76	6.5396
109.78	6.5406
109.79	6.5414
109.80	6.5423
109.83	6.5431
109.84	6.5437
109.85	6.5447
109.88	6.5457
109.89	6.5466
109.91	6.5477
109.93	6.5486
109.95	6.5495
109.96	6.5508
109.98	6.5517
109.99	6.5526
110.01	6.5535
110.03	6.5543
110.04	6.5550
110.06	6.5560
110.08	6.5566
110.10	6.5574
110.11	6.5583
110.13	6.5590
110.14	6.5600
110.15	6.5610
110.18	6.5618
110.19	6.5626
110.21	6.5637
110.23	6.5643
110.24	6.5654
110.26	6.5662
110.28	6.5669
110.29	6.5679
110.31	6.5687
110.32	6.5696
110.34	6.5705
110.36	6.5713
110.38	6.5723
110.39	6.5732
110.41	6.5741
110.43	6.5751
110.44	6.5759
110.46	6.5768
110.48	6.5776
110.49	6.5784
110.51	6.5793
110.53	6.5802
110.55	6.5811
110.56	6.5818
110.58	6.5826
110.59	6.5835
110.61	6.5842
110.62	6.5852
110.64	6.5862
110.65	6.5872
110.68	6.5879
110.69	6.5890
110.71	6.5900
110.73	6.5908
110.74	6.5917
110.76	6.5925
110.78	6.5935
110.79	6.5945
110.81	6.5952
110.82	6.5961
110.84	6.5969
110.86	6.5977
110.88	6.5986
110.89	6.5995
110.91	6.6004
110.93	6.6014
110.94	6.6024
110.96	6.6034
110.97	6.6043
110.99	6.6051
111.01	6.6061
111.03	6.6070
111.04	6.6077
111.06	6.6084
111.07	6.6091
111.09	6.6100
111.11	6.6106
111.13	6.6116
111.14	6.6128
111.15	6.6136
111.17	6.6142
111.19	6.6152
111.21	6.6164
111.23	6.6172
111.24	6.6183
111.26	6.6190
111.27	6.6200
111.29	6.6209
111.31	6.6216
111.33	6.6222
111.34	6.6227
111.36	6.6236
111.37	6.6243
111.39	6.6253
111.41	6.6263
111.43	6.6272
111.45	6.6281
111.46	6.6290
111.48	6.6299
111.49	6.6308
111.51	6.6319
111.53	6.6328
111.54	6.6337
111.56	6.6345
111.58	6.6354
111.59	6.6362
111.60	6.6370
111.63	6.6378
111.64	6.6388
111.66	6.6397
111.68	6.6406
111.69	6.6414
111.71	6.6425
111.73	6.6432
111.75	6.6443
111.76	6.6452
111.78	6.6461
111.79	6.6467
111.81	6.6476
111.82	6.6484
111.84	6.6492
111.86	6.6499
111.88	6.6505
111.89	6.6515
111.91	6.6524
111.93	6.6532
111.94	6.6542
111.96	6.6551
111.98	6.6560
111.99	6.6570
112.01	6.6578
112.03	6.6585
112.04	6.6593
112.06	6.6601
112.08	6.6606
112.09	6.6614
112.11	6.6620
112.13	6.6629
112.14	6.6640
112.16	6.6647
112.18	6.6659
112.19	6.6668
112.20	6.6677
112.23	6.6686
112.24	6.6696
112.25	6.6706
112.28	6.6714
112.29	6.6724
112.31	6.6730
112.33	6.6739
112.34	6.6746
112.36	6.6755
112.38	6.6763
112.39	6.6774
112.41	6.6784
112.43	6.6792
112.44	6.6801
112.46	6.6813
112.48	6.6821
112.49	6.6828
112.51	6.6839
112.53	6.6847
112.54	6.6858
112.56	6.6864
112.58	6.6874
112.59	6.6882
112.61	6.6889
112.63	6.6900
112.64	6.6911
112.66	6.6922
112.68	6.6931
112.69	6.6942
112.70	6.6953
112.73	6.6963
112.74	6.6973
112.76	6.6983
112.78	6.6991
112.79	6.6998
112.81	6.7006
112.83	6.7015
112.84	6.7022
112.86	6.7030
112.88	6.7040
112.89	6.7050
112.90	6.7064
112.92	6.7073
112.94	6.7084
112.96	6.7091
112.98	6.7101
112.99	6.7111
113.01	6.7119
113.03	6.7128
113.04	6.7137
113.06	6.7146
113.07	6.7155
113.09	6.7163
113.10	6.7172
113.12	6.7181
113.14	6.7189
113.16	6.7199
113.17	6.7207
113.19	6.7218
113.20	6.7227
113.23	6.7237
113.24	6.7248
113.25	6.7255
113.27	6.7264
113.29	6.7273
113.31	6.7282
113.33	6.7288
113.34	6.7296
113.35	6.7304
113.38	6.7313
113.39	6.7323
113.40	6.7333
113.42	6.7342
113.44	6.7352
113.45	6.7361
113.48	6.7369
113.49	6.7378
113.51	6.7388
113.53	6.7395
113.54	6.7404
113.56	6.7410
113.57	6.7417
113.59	6.7425
113.60	6.7435
113.62	6.7443
113.64	6.7452
113.66	6.7463
113.67	6.7472
113.69	6.7484
113.70	6.7493
113.73	6.7502
113.74	6.7512
113.75	6.7521
113.77	6.7530
113.79	6.7538
113.80	6.7547
113.82	6.7555
113.84	6.7564
113.86	6.7570
113.87	6.7578
113.89	6.7588
113.90	6.7598
113.93	6.7607
113.94	6.7617
113.95	6.7625
113.97	6.7635
113.99	6.7644
114.01	6.7653
114.03	6.7661
114.04	6.7668
114.06	6.7677
114.08	6.7684
114.09	6.7694
114.11	6.7700
114.12	6.7710
114.14	6.7717
114.16	6.7726
114.17	6.7734
114.19	6.7743
114.21	6.7752
114.23	6.7762
114.24	6.7772
114.25	6.7780
114.27	6.7789
114.29	6.7795
114.31	6.7802
114.33	6.7810
114.34	6.7816
114.35	6.7827
114.37	6.7836
114.39	6.7846
114.40	6.7854
114.42	6.7864
114.44	6.7873
114.45	6.7882
114.48	6.7891
114.49	6.7898
114.50	6.7906
114.52	6.7915
114.54	6.7926
114.55	6.7931
114.58	6.7942
114.59	6.7950
114.61	6.7959
114.63	6.7969
114.64	6.7979
114.66	6.7988
114.67	6.7998
114.69	6.8009
114.70	6.8019
114.73	6.8028
114.74	6.8038
114.76	6.8046
114.78	6.8055
114.79	6.8064
114.80	6.8071
114.82	6.8081
114.84	6.8089
114.86	6.8099
114.87	6.8109
114.89	6.8119
114.90	6.8129
114.92	6.8141
114.94	6.8152
114.95	6.8161
114.97	6.8172
114.99	6.8180
115.00	6.8186
115.03	6.8194
115.04	6.8202
115.05	6.8212
115.07	6.8222
115.08	6.8231
115.10	6.8241
115.12	6.8251
115.14	6.8262
115.16	6.8272
115.18	6.8282
115.19	6.8295
115.20	6.8305
115.22	6.8316
115.24	6.8323
115.25	6.8333
115.28	6.8342
115.29	6.8350
115.30	6.8357
115.32	6.8366
115.34	6.8376
115.35	6.8386
115.37	6.8396
115.39	6.8405
115.40	6.8416
115.42	6.8425
115.44	6.8436
115.46	6.8444
115.48	6.8456
115.49	6.8468
115.50	6.8477
115.52	6.8488
115.54	6.8498
115.55	6.8506
115.57	6.8517
115.59	6.8528
115.61	6.8538
115.63	6.8548
115.64	6.8559
115.65	6.8569
115.67	6.8582
115.68	6.8593
115.70	6.8605
115.72	6.8618
115.74	6.8628
115.75	6.8640
115.77	6.8648
115.79	6.8656
115.80	6.8663
115.82	6.8673
115.84	6.8681
115.85	6.8693
115.87	6.8702
115.89	6.8713
115.90	6.8724
115.92	6.8736
115.94	6.8746
115.96	6.8755
115.97	6.8765
115.99	6.8770
116.00	6.8779
116.02	6.8788
116.04	6.8795
116.05	6.8803
116.07	6.8811
116.09	6.8818
116.10	6.8825
116.12	6.8835
116.14	6.8844
116.15	6.8855
116.17	6.8864
116.19	6.8873
116.21	6.8882
116.22	6.8890
116.23	6.8900
116.25	6.8908
116.27	6.8916
116.29	6.8923
116.30	6.8931
116.32	6.8940
116.34	6.8950
116.36	6.8958
116.38	6.8967
116.39	6.8976
116.40	6.8984
116.42	6.8992
116.43	6.9003
116.45	6.9011
116.47	6.9022
116.48	6.9032
116.50	6.9041
116.52	6.9050
116.54	6.9060
116.55	6.9069
116.57	6.9078
116.59	6.9088
116.60	6.9096
116.62	6.9107
116.63	6.9116
116.65	6.9125
116.67	6.9136
116.68	6.9146
116.70	6.9153
116.72	6.9164
116.74	6.9174
116.75	6.9182
116.77	6.9192
116.78	6.9201
116.80	6.9209
116.83	6.9218
116.84	6.9228
116.85	6.9237
116.87	6.9248
116.88	6.9258
116.90	6.9266
116.92	6.9277
116.94	6.9286
116.96	6.9294
116.97	6.9303
116.98	6.9314
117.00	6.9324
117.02	6.9334
117.03	6.9344
117.05	6.9352
117.07	6.9362
117.09	6.9373
117.10	6.9382
117.12	6.9393
117.13	6.9401
117.15	6.9411
117.17	6.9421
117.18	6.9432
117.20	6.9441
117.22	6.9452
117.24	6.9461
117.25	6.9471
117.27	6.9480
117.28	6.9489
117.30	6.9498
117.32	6.9508
117.34	6.9517
117.35	6.9528
117.37	6.9538
117.38	6.9547
117.40	6.9556
117.42	6.9565
117.43	6.9576
117.45	6.9585
117.47	6.9595
117.48	6.9603
117.50	6.9610
117.52	6.9618
117.54	6.9630
117.55	6.9637
117.57	6.9647
117.58	6.9656
117.60	6.9664
117.62	6.9674
117.63	6.9684
117.65	6.9693
117.67	6.9702
117.69	6.9713
117.70	6.9723
117.72	6.9734
117.73	6.9742
117.75	6.9751
117.77	6.9761
117.78	6.9770
117.80	6.9779
117.82	6.9790
117.83	6.9797
117.85	6.9806
117.87	6.9816
117.88	6.9827
117.90	6.9836
117.92	6.9847
117.93	6.9857
117.95	6.9863
117.96	6.9873
117.98	6.9879
118.00	6.9888
118.02	6.9896
118.03	6.9904
118.05	6.9913
118.07	6.9923
118.08	6.9932
118.10	6.9942
118.12	6.9952
118.13	6.9962
118.15	6.9970
118.17	6.9981
118.18	6.9991
118.20	7.0002
118.22	7.0010
118.23	7.0020
118.25	7.0029
118.27	7.0036
118.28	7.0045
118.30	7.0053
118.32	7.0063
118.33	7.0071
118.35	7.0080
118.37	7.0091
118.39	7.0103
118.40	7.0112
118.42	7.0122
118.43	7.0131
118.45	7.0140
118.47	7.0149
118.48	7.0160
118.50	7.0168
118.52	7.0177
118.53	7.0185
118.55	7.0193
118.57	7.0204
118.58	7.0214
118.60	7.0223
118.62	7.0232
118.63	7.0243
118.65	7.0251
118.66	7.0263
118.68	7.0271
118.70	7.0282
118.71	7.0293
118.73	7.0301
118.75	7.0308
118.77	7.0316
118.79	7.0328
118.80	7.0334
118.82	7.0343
118.83	7.0352
118.85	7.0361
118.86	7.0372
118.88	7.0382
118.90	7.0392
118.92	7.0402
118.93	7.0410
118.95	7.0421
118.96	7.0428
118.98	7.0437
119.00	7.0447
119.02	7.0457
119.03	7.0466
119.05	7.0475
119.07	7.0486
119.08	7.0496
119.10	7.0508
119.12	7.0518
119.13	7.0529
119.15	7.0540
119.17	7.0553
119.18	7.0562
119.20	7.0573
119.22	7.0585
119.23	7.0594
119.25	7.0605
119.27	7.0614
119.28	7.0622
119.30	7.0631
119.32	7.0642
119.33	7.0652
119.35	7.0664
119.37	7.0673
119.39	7.0685
119.40	7.0696
119.42	7.0706
119.43	7.0716
119.45	7.0728
119.47	7.0737
119.48	7.0746
119.50	7.0756
119.52	7.0766
119.53	7.0776
119.55	7.0786
119.57	7.0796
119.58	7.0806
119.60	7.0817
119.61	7.0825
119.63	7.0835
119.65	7.0846
119.67	7.0856
119.68	7.0866
119.70	7.0875
119.72	7.0886
119.73	7.0894
119.75	7.0907
119.76	7.0916
119.78	7.0926
119.80	7.0935
119.82	7.0945
119.83	7.0955
119.85	7.0967
119.87	7.0977
119.88	7.0989
119.90	7.1000
119.92	7.1009
119.94	7.1017
119.95	7.1027
119.97	7.1036
119.98	7.1046
120.00	7.1055
120.02	7.1066
120.03	7.1075
120.05	7.1083
120.07	7.1092
120.08	7.1103
120.10	7.1113
120.12	7.1124
120.14	7.1135
120.15	7.1145
120.17	7.1155
120.18	7.1166
120.20	7.1175
120.22	7.1186
120.24	7.1194
120.25	7.1206
120.27	7.1215
120.28	7.1224
120.30	7.1232
120.32	7.1241
120.33	7.1252
120.35	7.1261
120.37	7.1273
120.38	7.1282
120.40	7.1292
120.42	7.1301
120.43	7.1311
120.45	7.1320
120.47	7.1331
120.48	7.1340
120.50	7.1348
120.52	7.1357
120.54	7.1368
120.55	7.1378
120.57	7.1390
120.58	7.1400
120.60	7.1410
120.61	7.1418
120.63	7.1428
120.65	7.1439
120.67	7.1448
120.68	7.1459
120.70	7.1472
120.72	7.1481
120.74	7.1491
120.75	7.1499
120.77	7.1511
120.78	7.1522
120.80	7.1529
120.81	7.1538
120.83	7.1548
120.85	7.1560
120.86	7.1570
120.88	7.1580
120.90	7.1593
120.91	7.1603
120.93	7.1611
120.95	7.1621
120.97	7.1632
120.98	7.1640
121.00	7.1649
121.02	7.1660
121.03	7.1670
121.05	7.1679
121.07	7.1690
121.08	7.1699
121.10	7.1710
121.12	7.1721
121.13	7.1731
121.15	7.1741
121.17	7.1750
121.19	7.1761
121.20	7.1771
121.21	7.1782
121.23	7.1793
121.25	7.1802
121.27	7.1812
121.28	7.1819
121.30	7.1826
121.32	7.1836
121.33	7.1847
121.35	7.1859
121.37	7.1870
121.38	7.1878
121.40	7.1890
121.42	7.1900
121.43	7.1910
121.45	7.1919
121.47	7.1928
121.48	7.1936
121.50	7.1947
121.52	7.1956
121.54	7.1964
121.55	7.1975
121.57	7.1982
121.59	7.1991
121.60	7.2001
121.62	7.2013
121.63	7.2023
121.65	7.2032
121.67	7.2043
121.68	7.2052
121.70	7.2061
121.72	7.2070
121.73	7.2082
121.75	7.2091
121.77	7.2103
121.78	7.2112
121.80	7.2120
121.82	7.2132
121.83	7.2144
121.85	7.2156
121.87	7.2165
121.88	7.2177
121.90	7.2187
121.92	7.2200
121.93	7.2212
121.95	7.2220
121.97	7.2231
121.98	7.2239
122.00	7.2249
122.02	7.2257
122.03	7.2268
122.05	7.2277
122.07	7.2288
122.08	7.2298
122.10	7.2310
122.12	7.2319
122.13	7.2329
122.15	7.2342
122.17	7.2351
122.19	7.2361
122.20	7.2369
122.22	7.2378
122.23	7.2388
122.25	7.2399
122.27	7.2408
122.28	7.2417
122.30	7.2425
122.31	7.2437
122.33	7.2446
122.35	7.2455
122.37	7.2466
122.38	7.2476
122.40	7.2486
122.42	7.2497
122.43	7.2506
122.45	7.2515
122.47	7.2526
122.48	7.2535
122.50	7.2546
122.52	7.2555
122.53	7.2565
122.55	7.2576
122.57	7.2587
122.58	7.2598
122.60	7.2608
122.62	7.2621
122.63	7.2631
122.65	7.2639
122.67	7.2653
122.68	7.2663
122.70	7.2674
122.71	7.2685
122.73	7.2695
122.75	7.2704
122.77	7.2716
122.78	7.2727
122.80	7.2736
122.82	7.2747
122.83	7.2759
122.85	7.2770
122.86	7.2780
122.88	7.2790
122.90	7.2800
122.92	7.2810
122.93	7.2823
122.95	7.2834
122.97	7.2844
122.98	7.2854
123.00	7.2863
123.02	7.2873
123.03	7.2882
123.05	7.2893
123.07	7.2904
123.08	7.2915
123.10	7.2924
123.11	7.2935
123.13	7.2944
123.15	7.2952
123.17	7.2962
123.18	7.2971
123.20	7.2979
123.22	7.2991
123.23	7.2999
123.25	7.3008
123.27	7.3019
123.28	7.3030
123.30	7.3040
123.32	7.3052
123.33	7.3062
123.35	7.3071
123.37	7.3084
123.38	7.3094
123.40	7.3105
123.42	7.3118
123.43	7.3125
123.45	7.3136
123.47	7.3147
123.48	7.3157
123.50	7.3167
123.52	7.3178
123.53	7.3189
123.55	7.3199
123.57	7.3209
123.58	7.3218
123.60	7.3232
123.62	7.3244
123.63	7.3254
123.65	7.3264
123.67	7.3275
123.68	7.3283
123.70	7.3295
123.71	7.3307
123.73	7.3315
123.75	7.3324
123.77	7.3333
123.78	7.3342
123.80	7.3352
123.81	7.3361
123.83	7.3371
123.85	7.3382
123.87	7.3391
123.88	7.3400
123.90	7.3411
123.91	7.3420
123.93	7.3430
123.95	7.3440
123.96	7.3449
123.98	7.3457
124.00	7.3466
124.01	7.3472
124.03	7.3483
124.05	7.3492
124.06	7.3503
124.08	7.3513
124.10	7.3526
124.12	7.3537
124.13	7.3547
124.15	7.3560
124.17	7.3569
124.18	7.3580
124.20	7.3591
124.22	7.3601
124.23	7.3610
124.25	7.3621
124.26	7.3633
124.28	7.3644
124.30	7.3656
124.32	7.3668
124.33	7.3678
124.35	7.3691
124.36	7.3703
124.38	7.3715
124.40	7.3728
124.42	7.3739
124.43	7.3749
124.45	7.3760
124.47	7.3770
124.48	7.3780
124.50	7.3790
124.51	7.3799
124.53	7.3810
124.55	7.3824
124.56	7.3833
124.58	7.3843
124.60	7.3855
124.61	7.3867
124.63	7.3879
124.65	7.3889
124.67	7.3899
124.68	7.3911
124.70	7.3920
124.71	7.3930
124.73	7.3941
124.75	7.3952
124.76	7.3961
124.78	7.3973
124.80	7.3981
124.81	7.3992
124.83	7.4005
124.85	7.4016
124.86	7.4027
124.88	7.4038
124.90	7.4050
124.91	7.4058
124.93	7.4070
124.95	7.4078
124.96	7.4087
124.98	7.4097
125.00	7.4105
125.01	7.4114
125.03	7.4126
125.05	7.4136
125.06	7.4147
125.08	7.4156
125.10	7.4165
125.11	7.4175
125.13	7.4187
125.15	7.4197
125.16	7.4204
125.18	7.4214
125.20	7.4223
125.21	7.4234
125.23	7.4246
125.25	7.4255
125.26	7.4265
125.28	7.4274
125.30	7.4284
125.31	7.4295
125.33	7.4307
125.35	7.4319
125.36	7.4329
125.38	7.4339
125.40	7.4350
125.41	7.4360
125.43	7.4370
125.45	7.4383
125.46	7.4391
125.48	7.4403
125.50	7.4414
125.51	7.4424
125.53	7.4436
125.55	7.4445
125.56	7.4456
125.58	7.4465
125.59	7.4477
125.61	7.4489
125.63	7.4498
125.65	7.4509
125.66	7.4520
125.68	7.4533
125.69	7.4540
125.71	7.4551
125.73	7.4561
125.75	7.4570
125.76	7.4580
125.78	7.4593
125.80	7.4605
125.81	7.4614
125.83	7.4624
125.85	7.4637
125.85	7.4651
125.87	7.4663
125.89	7.4676
125.91	7.4685
125.93	7.4695
125.95	7.4706
125.97	7.4716
125.98	7.4725
125.99	7.4733
126.01	7.4745
126.03	7.4758
126.04	7.4770
126.06	7.4781
126.08	7.4791
126.09	7.4803
126.11	7.4812
126.13	7.4823
126.14	7.4834
126.16	7.4843
126.18	7.4855
126.20	7.4865
126.21	7.4875
126.23	7.4886
126.25	7.4895
126.26	7.4906
126.28	7.4917
126.30	7.4929
126.31	7.4940
126.33	7.4952
126.34	7.4963
126.36	7.4972
126.38	7.4981
126.39	7.4993
126.41	7.5002
126.43	7.5010
126.45	7.5021
126.46	7.5032
126.48	7.5041
126.49	7.5052
126.51	7.5062
126.53	7.5073
126.54	7.5084
126.55	7.5096
126.58	7.5107
126.59	7.5119
126.61	7.5129
126.63	7.5140
126.65	7.5149
126.66	7.5158
126.68	7.5168
126.70	7.5176
126.71	7.5186
126.73	7.5197
126.75	7.5208
126.76	7.5217
126.78	7.5230
126.79	7.5240
126.81	7.5249
126.83	7.5259
126.84	7.5269
126.86	7.5279
126.88	7.5289
126.89	7.5299
126.90	7.5308
126.93	7.5318
126.94	7.5329
126.95	7.5336
126.98	7.5346
126.99	7.5357
127.01	7.5367
127.03	7.5380
127.04	7.5391
127.06	7.5400
127.08	7.5413
127.10	7.5424
127.11	7.5434
127.13	7.5445
127.14	7.5454
127.16	7.5465
127.18	7.5476
127.19	7.5486
127.21	7.5496
127.23	7.5509
127.24	7.5521
127.26	7.5531
127.28	7.5540
127.29	7.5551
127.31	7.5561
127.33	7.5573
127.35	7.5584
127.36	7.5594
127.38	7.5607
127.40	7.5618
127.41	7.5628
127.43	7.5639
127.44	7.5651
127.46	7.5661
127.47	7.5670
127.49	7.5683
127.50	7.5693
127.53	7.5706
127.55	7.5719
127.56	7.5730
127.58	7.5742
127.60	7.5755
127.61	7.5765
127.63	7.5776
127.64	7.5786
127.66	7.5796
127.68	7.5807
127.69	7.5819
127.71	7.5830
127.73	7.5841
127.74	7.5854
127.76	7.5864
127.78	7.5876
127.79	7.5888
127.81	7.5897
127.82	7.5909
127.84	7.5919
127.86	7.5929
127.88	7.5940
127.89	7.5951
127.90	7.5962
127.93	7.5974
127.94	7.5986
127.96	7.5995
127.98	7.6007
127.99	7.6021
128.01	7.6032
128.03	7.6045
128.04	7.6057
128.06	7.6069
128.07	7.6082
128.09	7.6092
128.10	7.6103
128.12	7.6114
128.14	7.6124
128.16	7.6133
128.18	7.6144
128.19	7.6156
128.21	7.6167
128.22	7.6177
128.25	7.6189
128.26	7.6199
128.28	7.6211
128.30	7.6222
128.31	7.6233
128.32	7.6244
128.35	7.6258
128.36	7.6269
128.38	7.6278
128.40	7.6290
128.41	7.6301
128.43	7.6313
128.44	7.6323
128.46	7.6333
128.47	7.6342
128.49	7.6352
128.51	7.6366
128.53	7.6377
128.55	7.6390
128.56	7.6403
128.57	7.6414
128.59	7.6425
128.61	7.6434
128.62	7.6445
128.64	7.6455
128.66	7.6464
128.68	7.6475
128.69	7.6485
128.71	7.6497
128.72	7.6508
128.74	7.6519
128.76	7.6532
128.78	7.6544
128.79	7.6553
128.81	7.6564
128.82	7.6576
128.84	7.6586
128.85	7.6598
128.87	7.6609
128.89	7.6619
128.91	7.6630
128.93	7.6639
128.94	7.6649
128.96	7.6659
128.97	7.6671
128.99	7.6680
129.01	7.6690
129.03	7.6698
129.05	7.6708
129.06	7.6718
129.08	7.6729
129.09	7.6737
129.11	7.6746
129.13	7.6755
129.14	7.6763
129.16	7.6773
129.18	7.6782
129.19	7.6792
129.21	7.6804
129.23	7.6816
129.24	7.6826
129.26	7.6834
129.28	7.6848
129.30	7.6857
129.31	7.6868
129.32	7.6878
129.34	7.6887
129.36	7.6897
129.38	7.6905
129.39	7.6914
129.41	7.6925
129.43	7.6937
129.44	7.6947
129.46	7.6957
129.47	7.6969
129.49	7.6981
129.51	7.6993
129.53	7.7003
129.55	7.7015
129.56	7.7025
129.57	7.7037
129.59	7.7046
129.61	7.7055
129.63	7.7066
129.64	7.7074
129.66	7.7086
129.68	7.7095
129.69	7.7107
129.71	7.7120
129.72	7.7134
129.75	7.7145
129.76	7.7157
129.77	7.7169
129.79	7.7181
129.81	7.7193
129.83	7.7204
129.84	7.7214
129.86	7.7226
129.88	7.7237
129.89	7.7248
129.91	7.7258
129.93	7.7269
129.94	7.7280
129.96	7.7294
129.97	7.7305
129.99	7.7316
130.01	7.7330
130.03	7.7341
130.04	7.7353
130.06	7.7365
130.08	7.7376
130.10	7.7386
130.11	7.7395
130.13	7.7406
130.14	7.7416
130.16	7.7427
130.18	7.7439
130.19	7.7449
130.21	7.7462
130.22	7.7474
130.24	7.7486
130.26	7.7499
130.28	7.7511
130.29	7.7522
130.30	7.7533
130.32	7.7543
130.34	7.7555
130.36	7.7566
130.38	7.7576
130.39	7.7586
130.41	7.7596
130.43	7.7607
130.44	7.7617
130.46	7.7629
130.48	7.7641
130.50	7.7651
130.51	7.7664
130.53	7.7676
130.54	7.7688
130.56	7.7697
130.57	7.7709
130.59	7.7719
130.61	7.7731
130.63	7.7743
130.65	7.7751
130.66	7.7762
130.68	7.7773
130.69	7.7786
130.71	7.7799
130.73	7.7812
130.74	7.7824
130.76	7.7837
130.78	7.7848
130.79	7.7858
130.81	7.7869
130.83	7.7880
130.85	7.7890
130.86	7.7902
130.88	7.7913
130.89	7.7924
130.91	7.7936
130.93	7.7949
130.94	7.7961
130.96	7.7972
130.97	7.7984
130.99	7.7995
131.01	7.8006
131.03	7.8017
131.05	7.8026
131.06	7.8036
131.08	7.8048
131.09	7.8058
131.11	7.8070
131.13	7.8084
131.15	7.8093
131.16	7.8106
131.18	7.8118
131.19	7.8129
131.21	7.8141
131.22	7.8154
131.24	7.8165
131.26	7.8176
131.28	7.8190
131.29	7.8198
131.31	7.8209
131.32	7.8220
131.34	7.8231
131.36	7.8243
131.38	7.8254
131.39	7.8266
131.41	7.8278
131.43	7.8290
131.44	7.8300
131.46	7.8313
131.47	7.8325
131.49	7.8336
131.51	7.8348
131.53	7.8362
131.54	7.8372
131.56	7.8384
131.57	7.8396
131.59	7.8406
131.61	7.8416
131.63	7.8425
131.64	7.8437
131.66	7.8449
131.68	7.8462
131.69	7.8475
131.71	7.8488
131.73	7.8501
131.75	7.8515
131.76	7.8528
131.78	7.8540
131.80	7.8549
131.81	7.8560
131.82	7.8572
131.84	7.8584
131.86	7.8594
131.88	7.8606
131.90	7.8618
131.91	7.8629
131.93	7.8642
131.94	7.8654
131.96	7.8668
131.97	7.8679
131.99	7.8692
132.01	7.8702
132.03	7.8713
132.05	7.8723
132.06	7.8733
132.07	7.8746
132.10	7.8756
132.11	7.8768
132.13	7.8779
132.15	7.8792
132.16	7.8804
132.18	7.8815
132.19	7.8827
132.21	7.8838
132.23	7.8850
132.25	7.8861
132.26	7.8873
132.28	7.8886
132.29	7.8897
132.30	7.8907
132.32	7.8917
132.34	7.8927
132.35	7.8938
132.38	7.8948
132.39	7.8961
132.41	7.8970
132.43	7.8985
132.44	7.8996
132.46	7.9009
132.47	7.9022
132.49	7.9031
132.51	7.9042
132.53	7.9054
132.54	7.9065
132.55	7.9076
132.57	7.9087
132.59	7.9098
132.61	7.9107
132.63	7.9119
132.64	7.9130
132.66	7.9143
132.68	7.9155
132.69	7.9167
132.71	7.9176
132.72	7.9189
132.75	7.9200
132.76	7.9213
132.78	7.9225
132.79	7.9236
132.81	7.9247
132.82	7.9258
132.84	7.9269
132.86	7.9280
132.88	7.9291
132.89	7.9304
132.91	7.9316
132.93	7.9329
132.94	7.9341
132.96	7.9353
132.98	7.9366
133.00	7.9379
133.01	7.9393
133.03	7.9404
133.04	7.9415
133.06	7.9427
133.07	7.9438
133.09	7.9449
133.11	7.9461
133.13	7.9471
133.14	7.9482
133.16	7.9496
133.18	7.9508
133.19	7.9520
133.21	7.9533
133.22	7.9545
133.24	7.9558
133.26	7.9571
133.28	7.9582
133.30	7.9593
133.31	7.9605
133.32	7.9616
133.34	7.9626
133.36	7.9636
133.38	7.9649
133.40	7.9660
133.41	7.9671
133.43	7.9684
133.44	7.9696
133.46	7.9709
133.48	7.9722
133.50	7.9732
133.51	7.9743
133.53	7.9756
133.54	7.9768
133.56	7.9778
133.57	7.9790
133.59	7.9801
133.61	7.9813
133.63	7.9826
133.64	7.9838
133.66	7.9852
133.68	7.9864
133.69	7.9876
133.71	7.9890
133.72	7.9902
133.74	7.9914
133.76	7.9926
133.78	7.9938
133.80	7.9949
133.81	7.9961
133.82	7.9973
133.84	7.9982
133.86	7.9997
133.88	8.0008
133.89	8.0020
133.91	8.0033
133.93	8.0046
133.94	8.0058
133.96	8.0069
133.97	8.0082
134.00	8.0094
134.01	8.0105
134.03	8.0119
134.04	8.0130
134.06	8.0143
134.08	8.0154
134.10	8.0165
134.11	8.0178
134.13	8.0190
134.14	8.0200
134.15	8.0215
134.18	8.0223
134.19	8.0235
134.21	8.0248
134.22	8.0258
134.23	8.0269
134.26	8.0280
134.28	8.0292
134.29	8.0302
134.31	8.0314
134.33	8.0323
134.34	8.0337
134.36	8.0349
134.38	8.0360
134.39	8.0373
134.41	8.0384
134.43	8.0395
134.44	8.0407
134.46	8.0418
134.48	8.0430
134.49	8.0442
134.51	8.0456
134.53	8.0466
134.54	8.0479
134.56	8.0489
134.57	8.0500
134.59	8.0512
134.60	8.0525
134.63	8.0537
134.64	8.0550
134.66	8.0563
134.68	8.0575
134.69	8.0587
134.70	8.0601
134.72	8.0612
134.74	8.0624
134.76	8.0637
134.78	8.0646
134.79	8.0659
134.80	8.0670
134.82	8.0682
134.84	8.0695
134.86	8.0705
134.88	8.0720
134.90	8.0731
134.91	8.0744
134.93	8.0756
134.94	8.0770
134.96	8.0782
134.97	8.0794
134.99	8.0807
135.00	8.0819
135.02	8.0830
135.04	8.0843
135.06	8.0855
135.07	8.0867
135.09	8.0880
135.11	8.0891
135.13	8.0906
135.14	8.0916
135.16	8.0928
135.17	8.0941
135.19	8.0954
135.21	8.0968
135.22	8.0980
135.25	8.0993
135.26	8.1003
135.28	8.1014
135.29	8.1024
135.30	8.1036
135.32	8.1046
135.34	8.1061
135.36	8.1073
135.38	8.1086
135.39	8.1097
135.40	8.1107
135.42	8.1119
135.44	8.1129
135.46	8.1141
135.47	8.1153
135.49	8.1166
135.50	8.1177
135.53	8.1188
135.54	8.1201
135.55	8.1213
135.57	8.1224
135.59	8.1236
135.61	8.1247
135.63	8.1258
135.64	8.1270
135.66	8.1282
135.68	8.1292
135.69	8.1303
135.70	8.1314
135.72	8.1325
135.74	8.1339
135.76	8.1348
135.78	8.1358
135.79	8.1371
135.81	8.1381
135.82	8.1391
135.84	8.1404
135.85	8.1417
135.88	8.1429
135.89	8.1441
135.90	8.1454
135.93	8.1466
135.94	8.1479
135.96	8.1491
135.97	8.1502
135.99	8.1513
136.01	8.1525
136.02	8.1537
136.04	8.1550
136.05	8.1562
136.07	8.1575
136.09	8.1589
136.10	8.1602
136.13	8.1614
136.14	8.1628
136.16	8.1642
136.18	8.1653
136.19	8.1668
136.21	8.1681
136.22	8.1692
136.24	8.1705
136.26	8.1717
136.28	8.1729
136.29	8.1744
136.30	8.1758
136.32	8.1770
136.34	8.1786
136.36	8.1800
136.38	8.1810
136.39	8.1823
136.40	8.1836
136.42	8.1848
136.44	8.1861
136.46	8.1873
136.47	8.1886
136.49	8.1899
136.50	8.1910
136.52	8.1921
136.54	8.1935
136.55	8.1951
136.58	8.1964
136.59	8.1978
136.60	8.1990
136.62	8.2001
136.63	8.2014
136.65	8.2025
136.68	8.2036
136.69	8.2050
136.70	8.2060
136.72	8.2073
136.74	8.2086
136.75	8.2096
136.77	8.2109
136.79	8.2119
136.80	8.2132
136.82	8.2144
136.84	8.2156
136.85	8.2171
136.88	8.2183
136.89	8.2198
136.91	8.2211
136.93	8.2223
136.94	8.2235
136.96	8.2248
136.97	8.2261
136.99	8.2274
137.00	8.2286
137.02	8.2297
137.04	8.2308
137.06	8.2321
137.08	8.2334
137.09	8.2347
137.11	8.2359
137.12	8.2372
137.14	8.2386
137.16	8.2398
137.18	8.2411
137.19	8.2424
137.21	8.2438
137.22	8.2450
137.24	8.2463
137.25	8.2475
137.27	8.2487
137.29	8.2501
137.31	8.2515
137.33	8.2528
137.34	8.2540
137.36	8.2554
137.38	8.2566
137.39	8.2578
137.41	8.2592
137.42	8.2603
137.44	8.2615
137.45	8.2626
137.47	8.2637
137.49	8.2648
137.51	8.2659
137.53	8.2672
137.54	8.2683
137.55	8.2697
137.58	8.2710
137.59	8.2721
137.61	8.2735
137.63	8.2745
137.64	8.2757
137.65	8.2770
137.67	8.2781
137.69	8.2792
137.71	8.2804
137.72	8.2815
137.74	8.2826
137.75	8.2838
137.77	8.2850
137.79	8.2863
137.81	8.2875
137.83	8.2887
137.84	8.2900
137.86	8.2913
137.88	8.2923
137.89	8.2935
137.90	8.2948
137.93	8.2959
137.94	8.2970
137.96	8.2981
137.97	8.2992
137.99	8.3005
138.01	8.3018
138.03	8.3029
138.04	8.3045
138.06	8.3058
138.07	8.3071
138.09	8.3083
138.10	8.3096
138.13	8.3109
138.14	8.3119
138.16	8.3131
138.18	8.3144
138.19	8.3156
138.20	8.3170
138.22	8.3181
138.24	8.3195
138.26	8.3209
138.28	8.3220
138.29	8.3235
138.31	8.3248
138.33	8.3260
138.34	8.3275
138.36	8.3288
138.37	8.3301
138.39	8.3313
138.41	8.3328
138.43	8.3340
138.44	8.3351
138.46	8.3366
138.47	8.3380
138.49	8.3395
138.51	8.3409
138.53	8.3423
138.55	8.3438
138.56	8.3453
138.58	8.3465
138.59	8.3481
138.61	8.3493
138.63	8.3505
138.64	8.3519
138.66	8.3533
138.67	8.3545
138.69	8.3559
138.71	8.3571
138.72	8.3584
138.74	8.3598
138.76	8.3611
138.78	8.3626
138.79	8.3639
138.81	8.3653
138.83	8.3665
138.84	8.3679
138.86	8.3693
138.88	8.3707
138.90	8.3721
138.91	8.3735
138.93	8.3747
138.94	8.3761
138.95	8.3774
138.98	8.3786
138.99	8.3799
139.01	8.3814
139.03	8.3828
139.04	8.3842
139.06	8.3857
139.08	8.3871
139.09	8.3884
139.11	8.3898
139.13	8.3910
139.15	8.3923
139.16	8.3936
139.18	8.3947
139.19	8.3959
139.21	8.3970
139.22	8.3986
139.24	8.3999
139.26	8.4009
139.28	8.4023
139.29	8.4036
139.31	8.4051
139.33	8.4065
139.34	8.4078
139.36	8.4092
139.38	8.4105
139.39	8.4117
139.41	8.4130
139.43	8.4142
139.44	8.4155
139.46	8.4167
139.47	8.4180
139.49	8.4195
139.51	8.4209
139.53	8.4225
139.54	8.4239
139.56	8.4253
139.58	8.4268
139.59	8.4281
139.61	8.4295
139.63	8.4308
139.64	8.4321
139.66	8.4334
139.68	8.4346
139.69	8.4361
139.71	8.4377
139.72	8.4390
139.74	8.4407
139.76	8.4420
139.78	8.4434
139.79	8.4448
139.81	8.4462
139.83	8.4476
139.85	8.4489
139.86	8.4503
139.88	8.4517
139.89	8.4533
139.91	8.4545
139.93	8.4560
139.94	8.4573
139.96	8.4587
139.98	8.4602
139.99	8.4618
140.01	8.4632
140.03	8.4647
140.05	8.4661
140.06	8.4675
140.08	8.4688
140.10	8.4703
140.11	8.4714
140.13	8.4728
140.14	8.4741
140.16	8.4753
140.18	8.4765
140.19	8.4779
140.21	8.4793
140.23	8.4808
140.25	8.4822
140.26	8.4834
140.28	8.4848
140.29	8.4863
140.31	8.4875
140.33	8.4887
140.34	8.4901
140.36	8.4912
140.38	8.4927
140.39	8.4939
140.41	8.4950
140.43	8.4962
140.44	8.4974
140.46	8.4987
140.48	8.5001
140.49	8.5014
140.51	8.5027
140.53	8.5040
140.55	8.5054
140.56	8.5067
140.58	8.5081
140.60	8.5096
140.61	8.5109
140.63	8.5122
140.64	8.5135
140.66	8.5147
140.67	8.5160
140.69	8.5173
140.71	8.5187
140.72	8.5202
140.74	8.5216
140.76	8.5230
140.78	8.5241
140.80	8.5257
140.81	8.5269
140.83	8.5283
140.84	8.5299
140.86	8.5311
140.88	8.5327
140.90	8.5342
140.91	8.5356
140.93	8.5370
140.94	8.5384
140.96	8.5398
140.97	8.5412
140.99	8.5427
141.01	8.5442
141.03	8.5457
141.04	8.5471
141.06	8.5486
141.08	8.5499
141.10	8.5516
141.11	8.5529
141.13	8.5544
141.15	8.5559
141.16	8.5572
141.18	8.5588
141.19	8.5604
141.21	8.5619
141.23	8.5636
141.25	8.5650
141.26	8.5664
141.28	8.5681
141.30	8.5694
141.31	8.5707
141.33	8.5721
141.34	8.5738
141.36	8.5750
141.38	8.5765
141.39	8.5780
141.41	8.5792
141.43	8.5806
141.44	8.5821
141.47	8.5836
141.48	8.5849
141.49	8.5866
141.51	8.5880
141.53	8.5894
141.55	8.5910
141.56	8.5924
141.58	8.5938
141.60	8.5951
141.61	8.5963
141.63	8.5978
141.64	8.5992
141.66	8.6006
141.68	8.6022
141.69	8.6036
141.71	8.6050
141.72	8.6066
141.74	8.6081
141.76	8.6095
141.78	8.6110
141.79	8.6124
141.81	8.6136
141.83	8.6151
141.85	8.6167
141.86	8.6181
141.88	8.6196
141.89	8.6210
141.91	8.6224
141.93	8.6241
141.94	8.6257
141.96	8.6272
141.98	8.6288
142.00	8.6301
142.01	8.6316
142.03	8.6330
142.04	8.6347
142.06	8.6361
142.08	8.6377
142.10	8.6389
142.11	8.6404
142.13	8.6417
142.15	8.6433
142.16	8.6446
142.18	8.6459
142.19	8.6476
142.21	8.6493
142.23	8.6510
142.24	8.6526
142.26	8.6541
142.28	8.6556
142.30	8.6571
142.31	8.6586
142.33	8.6599
142.35	8.6614
142.36	8.6631
142.38	8.6645
142.40	8.6658
142.41	8.6674
142.43	8.6692
142.44	8.6708
142.46	8.6722
142.48	8.6737
142.50	8.6754
142.51	8.6769
142.53	8.6786
142.55	8.6802
142.56	8.6817
142.58	8.6831
142.60	8.6848
142.61	8.6863
142.63	8.6878
142.65	8.6895
142.66	8.6913
142.68	8.6929
142.69	8.6943
142.71	8.6959
142.73	8.6974
142.75	8.6990
142.76	8.7006
142.78	8.7021
142.80	8.7036
142.81	8.7054
142.83	8.7071
142.84	8.7087
142.86	8.7103
142.88	8.7121
142.89	8.7138
142.91	8.7154
142.93	8.7171
142.94	8.7187
142.96	8.7201
142.98	8.7219
143.00	8.7235
143.01	8.7251
143.03	8.7267
143.05	8.7284
143.06	8.7298
143.08	8.7314
143.09	8.7329
143.11	8.7346
143.13	8.7361
143.15	8.7379
143.16	8.7395
143.18	8.7412
143.19	8.7429
143.22	8.7446
143.23	8.7461
143.25	8.7477
143.26	8.7494
143.27	8.7513
143.29	8.7528
143.31	8.7542
143.33	8.7558
143.34	8.7573
143.36	8.7589
143.38	8.7604
143.40	8.7621
143.41	8.7638
143.43	8.7656
143.44	8.7674
143.46	8.7692
143.48	8.7707
143.49	8.7726
143.51	8.7742
143.53	8.7758
143.55	8.7776
143.57	8.7791
143.58	8.7809
143.60	8.7824
143.61	8.7840
143.63	8.7859
143.64	8.7877
143.66	8.7894
143.68	8.7910
143.69	8.7927
143.71	8.7944
143.73	8.7961
143.75	8.7978
143.76	8.7994
143.78	8.8010
143.80	8.8027
143.82	8.8044
143.83	8.8061
143.85	8.8079
143.86	8.8097
143.88	8.8118
143.89	8.8133
143.91	8.8152
143.93	8.8170
143.94	8.8190
143.97	8.8206
143.98	8.8222
143.99	8.8238
144.01	8.8254
144.03	8.8270
144.04	8.8288
144.06	8.8305
144.08	8.8324
144.10	8.8343
144.11	8.8360
144.13	8.8375
144.15	8.8394
144.16	8.8412
144.18	8.8431
144.19	8.8450
144.21	8.8467
144.22	8.8483
144.25	8.8503
144.26	8.8520
144.28	8.8538
144.30	8.8556
144.31	8.8572
144.33	8.8589
144.34	8.8606
144.36	8.8626
144.38	8.8643
144.40	8.8662
144.41	8.8680
144.43	8.8698
144.44	8.8715
144.46	8.8733
144.48	8.8753
144.50	8.8771
144.51	8.8790
144.53	8.8807
144.55	8.8824
144.56	8.8841
144.58	8.8860
144.60	8.8875
144.61	8.8893
144.63	8.8910
144.65	8.8927
144.66	8.8946
144.68	8.8964
144.69	8.8982
144.71	8.9001
144.72	8.9019
144.75	8.9039
144.76	8.9057
144.78	8.9074
144.79	8.9090
144.81	8.9107
144.83	8.9125
144.84	8.9141
144.86	8.9160
144.88	8.9177
144.90	8.9195
144.91	8.9213
144.93	8.9231
144.94	8.9251
144.96	8.9270
144.97	8.9287
144.99	8.9302
145.01	8.9319
145.03	8.9337
145.05	8.9354
145.06	8.9373
145.08	8.9390
145.09	8.9409
145.11	8.9426
145.13	8.9442
145.14	8.9460
145.16	8.9475
145.18	8.9493
145.19	8.9510
145.21	8.9527
145.22	8.9545
145.24	8.9562
145.26	8.9579
145.28	8.9596
145.30	8.9611
145.31	8.9628
145.33	8.9645
145.34	8.9661
145.36	8.9676
145.37	8.9692
145.39	8.9709
145.41	8.9725
145.43	8.9741
145.44	8.9756
145.46	8.9771
145.47	8.9785
145.49	8.9798
145.51	8.9814
145.53	8.9828
145.54	8.9840
145.56	8.9854
145.58	8.9867
145.59	8.9880
145.61	8.9891
145.63	8.9904
145.64	8.9916
145.66	8.9929
145.68	8.9944
145.69	8.9959
145.71	8.9975
145.72	8.9988
145.74	9.0003
145.75	9.0017
145.78	9.0032
145.79	9.0045
145.81	9.0061
145.83	9.0078
145.84	9.0089
145.85	9.0104
145.87	9.0120
145.89	9.0135
145.90	9.0150
145.93	9.0163
145.94	9.0180
145.96	9.0197
145.97	9.0214
145.99	9.0231
146.00	9.0246
146.03	9.0263
146.04	9.0279
146.06	9.0293
146.08	9.0310
146.09	9.0326
146.11	9.0343
146.13	9.0358
146.14	9.0372
146.15	9.0389
146.18	9.0406
146.19	9.0421
146.21	9.0437
146.22	9.0453
146.24	9.0467
146.26	9.0482
146.27	9.0497
146.29	9.0513
146.31	9.0528
146.32	9.0542
146.34	9.0556
146.35	9.0571
146.37	9.0585
146.39	9.0598
146.41	9.0613
146.43	9.0626
146.44	9.0640
146.46	9.0654
146.47	9.0668
146.49	9.0683
146.50	9.0697
146.53	9.0713
146.54	9.0725
146.55	9.0738
146.57	9.0751
146.59	9.0764
146.61	9.0778
146.63	9.0791
146.64	9.0803
146.65	9.0815
146.68	9.0829
146.69	9.0841
146.70	9.0855
146.72	9.0870
146.74	9.0883
146.75	9.0898
146.77	9.0911
146.79	9.0921
146.80	9.0933
146.83	9.0945
146.84	9.0956
146.86	9.0971
146.87	9.0980
146.89	9.0993
146.90	9.1004
146.92	9.1018
146.94	9.1030
146.95	9.1043
146.97	9.1054
146.98	9.1066
147.00	9.1078
147.02	9.1090
147.03	9.1100
147.05	9.1111
147.07	9.1121
147.09	9.1133
147.10	9.1144
147.12	9.1158
147.14	9.1168
147.15	9.1181
147.17	9.1192
147.19	9.1203
147.20	9.1213
147.22	9.1226
147.24	9.1238
147.25	9.1250
147.27	9.1259
147.29	9.1270
147.30	9.1283
147.32	9.1295
147.34	9.1305
147.35	9.1316
147.37	9.1326
147.39	9.1337
147.40	9.1349
147.42	9.1360
147.44	9.1370
147.45	9.1383
147.47	9.1393
147.48	9.1401
147.50	9.1414
147.52	9.1426
147.53	9.1437
147.55	9.1448
147.57	9.1460
147.58	9.1470
147.60	9.1481
147.62	9.1490
147.64	9.1501
147.65	9.1510
147.67	9.1520
147.68	9.1526
147.70	9.1537
147.72	9.1549
147.73	9.1559
147.75	9.1569
147.77	9.1580
147.78	9.1590
147.80	9.1601
147.82	9.1612
147.84	9.1620
147.85	9.1629
147.87	9.1640
147.88	9.1649
147.90	9.1659
147.92	9.1670
147.94	9.1678
147.95	9.1689
147.97	9.1699
147.98	9.1707
148.00	9.1717
148.02	9.1728
148.04	9.1738
148.05	9.1750
148.07	9.1758
148.08	9.1767
148.10	9.1776
148.12	9.1788
148.14	9.1798
148.15	9.1807
148.17	9.1818
148.19	9.1827
148.20	9.1837
148.22	9.1846
148.23	9.1855
148.25	9.1865
148.27	9.1876
148.28	9.1886
148.30	9.1896
148.32	9.1908
148.33	9.1919
148.35	9.1929
148.37	9.1940
148.38	9.1952
148.40	9.1960
148.42	9.1971
148.44	9.1979
148.45	9.1989
148.47	9.2002
148.48	9.2012
148.50	9.2023
148.52	9.2036
148.53	9.2046
148.55	9.2058
148.57	9.2069
148.58	9.2079
148.60	9.2090
148.62	9.2101
148.64	9.2111
148.65	9.2122
148.67	9.2133
148.68	9.2144
148.70	9.2155
148.72	9.2168
148.73	9.2180
148.75	9.2191
148.77	9.2204
148.78	9.2217
148.80	9.2230
148.82	9.2243
148.84	9.2254
148.85	9.2267
148.87	9.2281
148.88	9.2292
148.90	9.2305
148.92	9.2319
148.93	9.2330
148.94	9.2345
148.96	9.2360
148.98	9.2372
149.00	9.2386
149.01	9.2400
149.03	9.2413
149.05	9.2429
149.06	9.2442
149.08	9.2455
149.10	9.2470
149.12	9.2484
149.13	9.2498
149.15	9.2513
149.17	9.2530
149.18	9.2544
149.20	9.2558
149.22	9.2574
149.23	9.2588
149.25	9.2604
149.26	9.2619
149.28	9.2636
149.30	9.2649
149.31	9.2667
149.33	9.2683
149.35	9.2697
149.36	9.2713
149.38	9.2730
149.40	9.2744
149.41	9.2759
149.43	9.2777
149.45	9.2794
149.46	9.2809
149.48	9.2826
149.50	9.2843
149.51	9.2858
149.53	9.2877
149.55	9.2893
149.56	9.2911
149.58	9.2930
149.60	9.2946
149.62	9.2962
149.63	9.2981
149.64	9.2998
149.66	9.3014
149.68	9.3031
149.69	9.3050
149.72	9.3067
149.73	9.3086
149.75	9.3105
149.77	9.3124
149.78	9.3143
149.80	9.3159
149.81	9.3176
149.83	9.3196
149.85	9.3216
149.86	9.3235
149.88	9.3252
149.90	9.3270
149.91	9.3289
149.93	9.3308
149.95	9.3330
149.96	9.3348
149.98	9.3369
150.00	9.3390
150.01	9.3409
150.03	9.3429
150.05	9.3450
150.06	9.3469
150.08	9.3489
150.10	9.3508
150.11	9.3527
150.13	9.3549
150.15	9.3570
150.16	9.3591
150.18	9.3613
150.19	9.3634
150.21	9.3656
150.23	9.3677
150.25	9.3699
150.26	9.3719
150.28	9.3741
150.30	9.3763
150.31	9.3786
150.33	9.3808
150.35	9.3829
150.36	9.3851
150.38	9.3873
150.40	9.3897
150.41	9.3920
150.43	9.3942
150.44	9.3966
150.46	9.3987
150.48	9.4009
150.49	9.4032
150.51	9.4054
150.53	9.4077
150.55	9.4103
150.56	9.4126
150.58	9.4149
150.60	9.4171
150.61	9.4196
150.63	9.4219
150.65	9.4242
150.66	9.4262
150.68	9.4285
150.69	9.4308
150.71	9.4331
150.73	9.4357
150.75	9.4379
150.76	9.4402
150.78	9.4427
150.80	9.4452
150.81	9.4475
150.83	9.4498
150.84	9.4522
150.86	9.4544
150.88	9.4568
150.89	9.4592
150.91	9.4614
150.93	9.4638
150.94	9.4662
150.96	9.4687
150.98	9.4709
150.99	9.4736
151.01	9.4760
151.03	9.4782
151.04	9.4805
151.06	9.4831
151.08	9.4852
151.10	9.4877
151.11	9.4898
151.13	9.4923
151.14	9.4946
151.16	9.4971
151.18	9.4996
151.19	9.5021
151.21	9.5044
151.22	9.5070
151.24	9.5094
151.26	9.5117
151.28	9.5140
151.29	9.5165
151.31	9.5189
151.33	9.5212
151.34	9.5235
151.36	9.5258
151.38	9.5282
151.40	9.5308
151.41	9.5333
151.43	9.5356
151.44	9.5380
151.46	9.5403
151.47	9.5427
151.50	9.5451
151.51	9.5474
151.53	9.5500
151.54	9.5524
151.56	9.5549
151.58	9.5573
151.59	9.5600
151.61	9.5624
151.62	9.5648
151.64	9.5673
151.65	9.5697
151.68	9.5719
151.69	9.5742
151.71	9.5767
151.72	9.5791
151.74	9.5817
151.75	9.5841
151.78	9.5867
151.79	9.5893
151.81	9.5918
151.83	9.5943
151.84	9.5967
151.85	9.5991
151.87	9.6015
151.89	9.6040
151.91	9.6066
151.93	9.6090
151.94	9.6109
151.95	9.6133
151.97	9.6157
151.99	9.6184
152.00	9.6207
152.02	9.6232
152.04	9.6258
152.06	9.6282
152.07	9.6305
152.09	9.6328
152.10	9.6353
152.12	9.6376
152.14	9.6400
152.16	9.6422
152.17	9.6449
152.19	9.6474
152.20	9.6497
152.22	9.6521
152.24	9.6545
152.25	9.6567
152.27	9.6591
152.29	9.6615
152.31	9.6636
152.32	9.6660
152.34	9.6684
152.35	9.6708
152.37	9.6732
152.38	9.6758
152.40	9.6781
152.42	9.6804
152.44	9.6828
152.45	9.6850
152.47	9.6873
152.49	9.6897
152.50	9.6920
152.52	9.6943
152.54	9.6966
152.55	9.6988
152.58	9.7013
152.59	9.7037
152.60	9.7064
152.62	9.7087
152.63	9.7111
152.65	9.7134
152.67	9.7158
152.69	9.7181
152.70	9.7204
152.72	9.7226
152.73	9.7249
152.75	9.7272
152.77	9.7296
152.79	9.7321
152.80	9.7345
152.82	9.7371
152.84	9.7395
152.85	9.7416
152.87	9.7441
152.89	9.7463
152.90	9.7489
152.92	9.7513
152.94	9.7538
152.95	9.7560
152.97	9.7586
152.99	9.7611
153.00	9.7635
153.02	9.7660
153.04	9.7685
153.05	9.7707
153.07	9.7733
153.09	9.7755
153.10	9.7778
153.12	9.7803
153.14	9.7826
153.15	9.7848
153.17	9.7871
153.19	9.7894
153.20	9.7918
153.22	9.7942
153.23	9.7966
153.25	9.7988
153.27	9.8012
153.28	9.8035
153.30	9.8056
153.32	9.8079
153.34	9.8103
153.35	9.8126
153.37	9.8150
153.38	9.8174
153.40	9.8196
153.42	9.8218
153.43	9.8242
153.45	9.8264
153.47	9.8285
153.48	9.8309
153.50	9.8333
153.52	9.8353
153.54	9.8376
153.55	9.8398
153.57	9.8420
153.59	9.8442
153.60	9.8463
153.62	9.8485
153.63	9.8509
153.65	9.8531
153.67	9.8553
153.69	9.8574
153.70	9.8596
153.72	9.8616
153.73	9.8637
153.75	9.8659
153.77	9.8682
153.78	9.8706
153.80	9.8727
153.82	9.8750
153.83	9.8771
153.85	9.8795
153.87	9.8816
153.88	9.8839
153.90	9.8860
153.92	9.8882
153.93	9.8903
153.95	9.8922
153.97	9.8946
153.99	9.8971
154.00	9.8991
154.02	9.9012
154.03	9.9035
154.05	9.9056
154.07	9.9078
154.08	9.9096
154.10	9.9118
154.12	9.9140
154.13	9.9159
154.15	9.9180
154.16	9.9201
154.18	9.9224
154.19	9.9248
154.21	9.9270
154.23	9.9292
154.25	9.9313
154.26	9.9337
154.28	9.9359
154.30	9.9380
154.32	9.9404
154.33	9.9425
154.35	9.9444
154.36	9.9467
154.38	9.9490
154.40	9.9513
154.41	9.9536
154.43	9.9558
154.44	9.9580
154.46	9.9596
154.48	9.9619
154.50	9.9640
154.51	9.9663
154.53	9.9683
154.55	9.9707
154.56	9.9729
154.58	9.9750
154.60	9.9773
154.61	9.9798
154.63	9.9821
154.65	9.9845
154.66	9.9867
154.68	9.9891
154.69	9.9913
154.71	9.9935
154.73	9.9958
154.75	9.9980
154.76	10.0003
154.78	10.0028
154.80	10.0051
154.82	10.0074
154.83	10.0097
154.84	10.0120
154.86	10.0144
154.88	10.0167
154.90	10.0190
154.91	10.0213
154.93	10.0235
154.94	10.0257
154.96	10.0281
154.98	10.0305
155.00	10.0329
155.01	10.0354
155.03	10.0379
155.04	10.0402
155.06	10.0426
155.08	10.0449
155.10	10.0474
155.11	10.0498
155.13	10.0520
155.14	10.0543
155.16	10.0566
155.18	10.0590
155.19	10.0614
155.21	10.0638
155.23	10.0660
155.24	10.0684
155.26	10.0706
155.28	10.0730
155.29	10.0753
155.31	10.0779
155.33	10.0802
155.35	10.0825
155.36	10.0849
155.38	10.0873
155.39	10.0898
155.41	10.0922
155.43	10.0947
155.44	10.0970
155.46	10.0996
155.47	10.1022
155.49	10.1046
155.51	10.1070
155.53	10.1094
155.54	10.1119
155.56	10.1144
155.58	10.1169
155.59	10.1195
155.61	10.1222
155.63	10.1245
155.65	10.1270
155.66	10.1298
155.68	10.1322
155.69	10.1349
155.71	10.1373
155.72	10.1400
155.74	10.1427
155.76	10.1455
155.78	10.1482
155.79	10.1508
155.81	10.1536
155.83	10.1562
155.85	10.1589
155.86	10.1616
155.88	10.1643
155.90	10.1671
155.91	10.1696
155.93	10.1723
155.94	10.1750
155.96	10.1776
155.97	10.1804
155.99	10.1833
156.01	10.1862
156.03	10.1890
156.04	10.1919
156.06	10.1947
156.08	10.1977
156.09	10.2005
156.11	10.2033
156.12	10.2060
156.14	10.2090
156.16	10.2118
156.18	10.2148
156.19	10.2177
156.21	10.2206
156.23	10.2235
156.24	10.2263
156.26	10.2291
156.28	10.2320
156.29	10.2347
156.30	10.2375
156.33	10.2403
156.34	10.2433
156.36	10.2462
156.38	10.2490
156.39	10.2520
156.41	10.2550
156.43	10.2579
156.44	10.2611
156.45	10.2642
156.47	10.2670
156.49	10.2701
156.51	10.2731
156.53	10.2760
156.54	10.2788
156.56	10.2819
156.58	10.2846
156.59	10.2876
156.61	10.2908
156.62	10.2937
156.64	10.2969
156.65	10.2999
156.68	10.3029
156.69	10.3059
156.71	10.3092
156.72	10.3121
156.75	10.3151
156.76	10.3181
156.78	10.3211
156.80	10.3243
156.81	10.3275
156.83	10.3304
156.84	10.3336
156.86	10.3367
156.88	10.3400
156.89	10.3431
156.91	10.3464
156.93	10.3496
156.94	10.3529
156.96	10.3559
156.98	10.3593
157.00	10.3624
157.01	10.3656
157.03	10.3689
157.04	10.3721
157.06	10.3754
157.08	10.3787
157.09	10.3821
157.11	10.3855
157.13	10.3888
157.14	10.3921
157.16	10.3954
157.17	10.3986
157.19	10.4021
157.20	10.4054
157.22	10.4089
157.24	10.4121
157.26	10.4156
157.28	10.4189
157.29	10.4224
157.31	10.4257
157.33	10.4290
157.34	10.4324
157.35	10.4358
157.38	10.4390
157.39	10.4425
157.41	10.4461
157.43	10.4495
157.44	10.4531
157.45	10.4568
157.47	10.4603
157.49	10.4638
157.51	10.4672
157.53	10.4708
157.54	10.4744
157.56	10.4778
157.57	10.4814
157.59	10.4849
157.61	10.4885
157.63	10.4921
157.64	10.4957
157.66	10.4995
157.67	10.5031
157.69	10.5067
157.71	10.5105
157.72	10.5142
157.74	10.5179
157.76	10.5215
157.78	10.5251
157.79	10.5288
157.81	10.5327
157.83	10.5365
157.84	10.5403
157.86	10.5442
157.87	10.5479
157.89	10.5517
157.90	10.5556
157.93	10.5591
157.94	10.5629
157.96	10.5668
157.97	10.5705
157.99	10.5741
158.00	10.5781
158.02	10.5819
158.04	10.5859
158.06	10.5898
158.07	10.5937
158.09	10.5976
158.11	10.6016
158.13	10.6055
158.14	10.6094
158.16	10.6135
158.18	10.6174
158.19	10.6213
158.21	10.6255
158.22	10.6297
158.24	10.6338
158.26	10.6379
158.28	10.6420
158.29	10.6462
158.30	10.6503
158.32	10.6546
158.34	10.6589
158.35	10.6630
158.37	10.6672
158.39	10.6712
158.40	10.6756
158.43	10.6798
158.44	10.6841
158.46	10.6884
158.47	10.6925
158.49	10.6969
158.50	10.7011
158.52	10.7052
158.54	10.7096
158.55	10.7138
158.57	10.7180
158.58	10.7223
158.60	10.7266
158.62	10.7311
158.64	10.7356
158.66	10.7401
158.68	10.7443
158.69	10.7488
158.71	10.7531
158.72	10.7573
158.74	10.7616
158.76	10.7660
158.77	10.7703
158.79	10.7748
158.81	10.7795
158.83	10.7837
158.84	10.7882
158.86	10.7929
158.87	10.7973
158.89	10.8016
158.90	10.8061
158.92	10.8106
158.94	10.8151
158.96	10.8194
158.97	10.8239
158.99	10.8284
159.01	10.8329
159.03	10.8374
159.04	10.8422
159.06	10.8467
159.07	10.8513
159.09	10.8558
159.10	10.8604
159.12	10.8649
159.14	10.8695
159.15	10.8741
159.17	10.8786
159.19	10.8834
159.20	10.8880
159.22	10.8927
159.24	10.8973
159.25	10.9021
159.27	10.9068
159.29	10.9115
159.31	10.9162
159.32	10.9209
159.34	10.9256
159.35	10.9303
159.37	10.9349
159.39	10.9395
159.41	10.9444
159.43	10.9492
159.44	10.9540
159.46	10.9591
159.47	10.9639
159.49	10.9688
159.51	10.9737
159.52	10.9786
159.54	10.9832
159.55	10.9881
159.57	10.9932
159.59	10.9981
159.60	11.0031
159.62	11.0081
159.64	11.0130
159.65	11.0182
159.67	11.0234
159.69	11.0284
159.70	11.0335
159.72	11.0386
159.73	11.0435
159.75	11.0489
159.77	11.0540
159.79	11.0590
159.80	11.0643
159.82	11.0692
159.84	11.0743
159.85	11.0795
159.87	11.0847
159.88	11.0898
159.90	11.0950
159.92	11.1003
159.94	11.1055
159.95	11.1106
159.97	11.1159
159.99	11.1211
160.00	11.1263
160.02	11.1314
160.04	11.1367
160.05	11.1420
160.07	11.1474
160.09	11.1525
160.10	11.1580
160.12	11.1632
160.14	11.1686
160.15	11.1739
160.16	11.1792
160.18	11.1844
160.20	11.1897
160.22	11.1952
160.24	11.2005
160.25	11.2059
160.27	11.2114
160.28	11.2168
160.30	11.2220
160.32	11.2274
160.34	11.2329
160.35	11.2380
160.37	11.2433
160.38	11.2486
160.40	11.2538
160.42	11.2591
160.43	11.2646
160.45	11.2700
160.47	11.2755
160.48	11.2811
160.50	11.2864
160.52	11.2917
160.53	11.2972
160.55	11.3023
160.57	11.3076
160.58	11.3128
160.60	11.3181
160.62	11.3235
160.63	11.3287
160.65	11.3339
160.67	11.3393
160.68	11.3445
160.70	11.3497
160.72	11.3550
160.73	11.3603
160.75	11.3656
160.77	11.3710
160.79	11.3762
160.80	11.3813
160.82	11.3869
160.84	11.3920
160.85	11.3972
160.87	11.4026
160.88	11.4080
160.90	11.4134
160.92	11.4185
160.93	11.4236
160.95	11.4286
160.96	11.4333
160.98	11.4382
161.00	11.4433
161.02	11.4483
161.03	11.4532
161.05	11.4583
161.06	11.4633
161.08	11.4683
161.10	11.4733
161.12	11.4781
161.13	11.4831
161.15	11.4881
161.17	11.4928
161.18	11.4977
161.19	11.5024
161.21	11.5071
161.23	11.5121
161.25	11.5167
161.27	11.5217
161.28	11.5265
161.30	11.5311
161.32	11.5359
161.33	11.5406
161.35	11.5451
161.37	11.5499
161.39	11.5548
161.40	11.5594
161.42	11.5643
161.44	11.5690
161.45	11.5736
161.46	11.5787
161.48	11.5834
161.50	11.5884
161.52	11.5933
161.53	11.5981
161.55	11.6030
161.57	11.6078
161.58	11.6125
161.60	11.6172
161.61	11.6221
161.63	11.6269
161.65	11.6319
161.67	11.6368
161.68	11.6419
161.70	11.6468
161.72	11.6518
161.73	11.6568
161.75	11.6620
161.76	11.6673
161.78	11.6725
161.80	11.6774
161.81	11.6827
161.83	11.6880
161.85	11.6931
161.86	11.6984
161.88	11.7038
161.90	11.7090
161.91	11.7143
161.93	11.7196
161.95	11.7248
161.97	11.7302
161.98	11.7355
162.00	11.7410
162.01	11.7462
162.03	11.7517
162.05	11.7574
162.06	11.7627
162.08	11.7680
162.10	11.7736
162.11	11.7791
162.13	11.7848
162.15	11.7903
162.17	11.7959
162.18	11.8016
162.19	11.8070
162.21	11.8127
162.23	11.8186
162.25	11.8243
162.26	11.8301
162.28	11.8358
162.30	11.8418
162.31	11.8474
162.33	11.8530
162.35	11.8586
162.36	11.8643
162.38	11.8699
162.40	11.8756
162.42	11.8812
162.43	11.8870
162.44	11.8926
162.46	11.8983
162.48	11.9041
162.50	11.9097
162.51	11.9154
162.53	11.9210
162.55	11.9263
162.56	11.9320
162.58	11.9376
162.60	11.9430
162.61	11.9487
162.63	11.9542
162.65	11.9599
162.66	11.9654
162.68	11.9709
162.69	11.9766
162.71	11.9821
162.73	11.9875
162.75	11.9929
162.77	11.9985
162.78	12.0040
162.80	12.0094
162.81	12.0148
162.83	12.0202
162.84	12.0255
162.86	12.0310
162.88	12.0365
162.90	12.0417
162.91	12.0472
162.93	12.0524
162.94	12.0575
162.96	12.0628
162.97	12.0682
162.99	12.0735
163.01	12.0787
163.03	12.0841
163.04	12.0895
163.06	12.0949
163.08	12.1002
163.09	12.1055
163.11	12.1107
163.13	12.1163
163.14	12.1214
163.16	12.1267
163.18	12.1320
163.19	12.1373
163.21	12.1426
163.22	12.1478
163.24	12.1528
163.26	12.1581
163.28	12.1634
163.30	12.1688
163.31	12.1741
163.33	12.1793
163.35	12.1843
163.36	12.1896
163.38	12.1945
163.39	12.1996
163.41	12.2046
163.43	12.2099
163.44	12.2151
163.46	12.2202
163.47	12.2256
163.49	12.2306
163.51	12.2359
163.53	12.2412
163.54	12.2463
163.56	12.2514
163.58	12.2564
163.59	12.2614
163.61	12.2668
163.63	12.2719
163.65	12.2770
163.66	12.2824
163.68	12.2875
163.69	12.2927
163.71	12.2977
163.72	12.3029
163.75	12.3080
163.76	12.3134
163.78	12.3185
163.79	12.3234
163.81	12.3284
163.83	12.3335
163.84	12.3386
163.85	12.3437
163.88	12.3487
163.89	12.3537
163.91	12.3586
163.93	12.3635
163.94	12.3685
163.96	12.3732
163.97	12.3783
163.99	12.3832
164.00	12.3881
164.03	12.3929
164.04	12.3977
164.06	12.4027
164.08	12.4075
164.09	12.4124
164.10	12.4173
164.12	12.4221
164.14	12.4271
164.16	12.4321
164.18	12.4370
164.19	12.4419
164.21	12.4467
164.22	12.4517
164.24	12.4564
164.26	12.4615
164.28	12.4666
164.29	12.4714
164.31	12.4761
164.33	12.4810
164.34	12.4859
164.36	12.4906
164.38	12.4954
164.39	12.5002
164.40	12.5051
164.42	12.5099
164.44	12.5148
164.46	12.5198
164.47	12.5246
164.49	12.5294
164.51	12.5343
164.53	12.5391
164.54	12.5440
164.56	12.5487
164.58	12.5534
164.59	12.5582
164.60	12.5628
164.62	12.5675
164.64	12.5724
164.66	12.5771
164.68	12.5819
164.69	12.5869
164.70	12.5917
164.72	12.5965
164.74	12.6014
164.76	12.6062
164.78	12.6109
164.79	12.6157
164.80	12.6204
164.82	12.6248
164.84	12.6295
164.85	12.6344
164.87	12.6391
164.89	12.6440
164.90	12.6488
164.92	12.6536
164.94	12.6583
164.95	12.6629
164.97	12.6677
164.99	12.6724
165.01	12.6770
165.03	12.6818
165.04	12.6866
165.06	12.6914
165.08	12.6962
165.09	12.7011
165.10	12.7060
165.12	12.7108
165.14	12.7156
165.15	12.7204
165.17	12.7253
165.19	12.7302
165.20	12.7352
165.22	12.7399
165.24	12.7447
165.25	12.7496
165.27	12.7543
165.29	12.7592
165.30	12.7638
165.32	12.7685
165.34	12.7732
165.35	12.7779
165.38	12.7826
165.39	12.7873
165.40	12.7921
165.42	12.7967
165.44	12.8016
165.45	12.8062
165.47	12.8109
165.49	12.8156
165.51	12.8204
165.53	12.8250
165.54	12.8296
165.55	12.8341
165.57	12.8389
165.59	12.8435
165.60	12.8482
165.62	12.8529
165.64	12.8577
165.65	12.8623
165.67	12.8670
165.68	12.8717
165.70	12.8765
165.72	12.8813
165.74	12.8859
165.75	12.8907
165.77	12.8952
165.79	12.8999
165.80	12.9047
165.82	12.9092
165.83	12.9141
165.85	12.9188
165.87	12.9235
165.89	12.9281
165.90	12.9328
165.92	12.9374
165.94	12.9419
165.95	12.9468
165.97	12.9512
165.99	12.9560
166.00	12.9606
166.02	12.9653
166.04	12.9698
166.05	12.9743
166.07	12.9792
166.09	12.9838
166.10	12.9884
166.12	12.9930
166.14	12.9977
166.15	13.0023
166.17	13.0068
166.19	13.0114
166.20	13.0156
166.22	13.0202
166.24	13.0246
166.25	13.0290
166.26	13.0333
166.28	13.0375
166.30	13.0418
166.32	13.0462
166.34	13.0503
166.35	13.0543
166.37	13.0585
166.39	13.0625
166.40	13.0666
166.42	13.0707
166.43	13.0746
166.44	13.0788
166.47	13.0830
166.49	13.0873
166.50	13.0913
166.52	13.0952
166.54	13.0991
166.55	13.1031
166.57	13.1071
166.59	13.1110
166.60	13.1150
166.62	13.1188
166.64	13.1229
166.65	13.1268
166.67	13.1306
166.69	13.1347
166.70	13.1385
166.72	13.1425
166.74	13.1463
166.75	13.1503
166.78	13.1540
166.79	13.1577
166.80	13.1613
166.82	13.1649
166.84	13.1686
166.85	13.1724
166.87	13.1760
166.88	13.1796
166.90	13.1833
166.92	13.1870
166.93	13.1907
166.95	13.1943
166.97	13.1977
166.99	13.2012
167.00	13.2047
167.02	13.2080
167.04	13.2115
167.05	13.2149
167.07	13.2182
167.08	13.2218
167.10	13.2253
167.12	13.2285
167.13	13.2319
167.15	13.2349
167.17	13.2381
167.18	13.2414
167.20	13.2447
167.22	13.2480
167.24	13.2512
167.25	13.2544
167.27	13.2578
167.28	13.2610
167.30	13.2643
167.32	13.2674
167.34	13.2707
167.35	13.2738
167.37	13.2768
167.38	13.2798
167.40	13.2829
167.42	13.2858
167.44	13.2889
167.45	13.2919
167.47	13.2949
167.49	13.2981
167.50	13.3010
167.52	13.3040
167.54	13.3069
167.55	13.3099
167.57	13.3125
167.58	13.3155
167.60	13.3183
167.62	13.3210
167.63	13.3236
167.65	13.3262
167.67	13.3289
167.68	13.3314
167.70	13.3341
167.72	13.3364
167.73	13.3389
167.75	13.3411
167.77	13.3435
167.79	13.3459
167.80	13.3482
167.82	13.3505
167.84	13.3527
167.85	13.3550
167.87	13.3572
167.88	13.3593
167.90	13.3615
167.92	13.3636
167.94	13.3657
167.95	13.3677
167.97	13.3695
167.98	13.3715
168.00	13.3732
168.02	13.3749
168.03	13.3766
168.05	13.3783
168.07	13.3799
168.08	13.3815
168.10	13.3831
168.12	13.3846
168.14	13.3861
168.15	13.3874
168.17	13.3886
168.18	13.3899
168.20	13.3914
168.22	13.3925
168.24	13.3938
168.25	13.3949
168.27	13.3959
168.28	13.3970
168.30	13.3979
168.32	13.3988
168.34	13.3995
168.35	13.4005
168.37	13.4010
168.38	13.4017
168.40	13.4023
168.42	13.4029
168.43	13.4035
168.45	13.4041
168.47	13.4042
168.49	13.4044
168.50	13.4045
168.52	13.4046
168.53	13.4049
168.55	13.4048
168.57	13.4045
168.59	13.4043
168.60	13.4041
168.62	13.4036
168.63	13.4031
168.65	13.4027
168.67	13.4021
168.68	13.4013
168.70	13.4005
168.72	13.3995
168.73	13.3988
168.75	13.3977
168.77	13.3965
168.78	13.3953
168.80	13.3937
168.82	13.3923
168.83	13.3907
168.85	13.3892
168.87	13.3877
168.88	13.3859
168.90	13.3839
168.91	13.3821
168.93	13.3801
168.95	13.3783
168.97	13.3760
168.98	13.3739
169.00	13.3713
169.02	13.3690
169.03	13.3666
169.05	13.3640
169.07	13.3611
169.08	13.3583
169.10	13.3555
169.12	13.3525
169.13	13.3493
169.15	13.3461
169.17	13.3429
169.18	13.3393
169.20	13.3359
169.22	13.3322
169.23	13.3284
169.25	13.3245
169.27	13.3205
169.29	13.3164
169.30	13.3123
169.32	13.3079
169.33	13.3036
169.35	13.2992
169.37	13.2943
169.39	13.2895
169.40	13.2847
169.42	13.2795
169.43	13.2742
169.45	13.2690
169.47	13.2634
169.49	13.2580
169.50	13.2524
169.52	13.2465
169.53	13.2406
169.55	13.2345
169.57	13.2284
169.59	13.2218
169.60	13.2152
169.62	13.2084
169.63	13.2017
169.65	13.1947
169.67	13.1876
169.68	13.1800
169.70	13.1725
169.72	13.1647
169.73	13.1573
169.75	13.1492
169.77	13.1412
169.78	13.1331
169.80	13.1247
169.82	13.1162
169.83	13.1077
169.85	13.0986
169.87	13.0897
169.88	13.0808
169.90	13.0715
169.92	13.0620
169.93	13.0528
169.95	13.0429
169.97	13.0331
169.99	13.0230
170.00	13.0125
170.02	13.0020
170.03	12.9916
170.05	12.9807
170.07	12.9700
170.09	12.9589
170.10	12.9476
170.12	12.9364
170.13	12.9248
170.15	12.9131
170.17	12.9011
170.18	12.8890
170.20	12.8767
170.22	12.8642
170.23	12.8517
170.25	12.8390
170.27	12.8262
170.28	12.8134
170.30	12.8003
170.32	12.7870
170.33	12.7733
170.35	12.7598
170.37	12.7461
170.38	12.7322
170.40	12.7180
170.42	12.7039
170.43	12.6892
170.45	12.6747
170.47	12.6601
170.49	12.6452
170.50	12.6302
170.53	12.6147
170.53	12.5993
170.55	12.5837
170.58	12.5678
170.60	12.5521
170.61	12.5359
170.62	12.5196
170.63	12.5032
170.65	12.4868
170.66	12.4702
170.68	12.4535
170.70	12.4367
170.72	12.4196
170.73	12.4023
170.75	12.3848
170.77	12.3672
170.79	12.3497
170.80	12.3319
170.82	12.3140
170.83	12.2958
170.85	12.2777
170.87	12.2594
170.88	12.2412
170.90	12.2226
170.92	12.2038
170.93	12.1850
170.95	12.1660
170.97	12.1472
170.99	12.1282
171.00	12.1089
171.02	12.0897
171.03	12.0704
171.05	12.0510
171.07	12.0319
171.08	12.0125
171.10	11.9929
171.12	11.9732
171.14	11.9535
171.15	11.9335
171.17	11.9134
171.18	11.8931
171.19	11.8726
171.22	11.8521
171.23	11.8316
171.25	11.8106
171.27	11.7894
171.28	11.7682
171.30	11.7467
171.32	11.7251
171.33	11.7032
171.35	11.6810
171.37	11.6590
171.38	11.6368
171.40	11.6145
171.42	11.5920
171.43	11.5698
171.45	11.5473
171.47	11.5250
171.49	11.5027
171.50	11.4805
171.52	11.4585
171.53	11.4365
171.55	11.4145
171.56	11.3928
171.58	11.3709
171.60	11.3493
171.62	11.3279
171.63	11.3067
171.65	11.2856
171.67	11.2647
171.68	11.2441
171.70	11.2237
171.72	11.2038
171.74	11.1839
171.75	11.1641
171.77	11.1445
171.78	11.1253
171.80	11.1063
171.82	11.0876
171.83	11.0690
171.85	11.0509
171.87	11.0330
171.89	11.0153
171.90	10.9979
171.92	10.9807
171.93	10.9640
171.95	10.9473
171.97	10.9308
171.98	10.9149
172.00	10.8989
172.02	10.8834
172.03	10.8683
172.05	10.8535
172.07	10.8387
172.09	10.8246
172.10	10.8103
172.12	10.7964
172.13	10.7827
172.15	10.7693
172.17	10.7562
172.18	10.7435
172.20	10.7309
172.22	10.7183
172.23	10.7062
172.25	10.6942
172.27	10.6828
172.28	10.6716
172.30	10.6606
172.32	10.6498
172.33	10.6395
172.35	10.6292
172.36	10.6191
172.38	10.6091
172.40	10.5993
172.42	10.5898
172.43	10.5805
172.45	10.5717
172.47	10.5628
172.48	10.5545
172.50	10.5458
172.52	10.5376
172.53	10.5295
172.55	10.5215
172.57	10.5136
172.58	10.5062
172.60	10.4988
172.62	10.4917
172.63	10.4848
172.65	10.4781
172.67	10.4717
172.68	10.4655
172.70	10.4594
172.72	10.4534
172.73	10.4478
172.75	10.4420
172.77	10.4367
172.78	10.4314
172.80	10.4261
172.82	10.4209
172.83	10.4159
172.85	10.4112
172.87	10.4070
172.88	10.4027
172.90	10.3985
172.92	10.3944
172.94	10.3905
172.95	10.3868
172.97	10.3831
172.98	10.3794
173.00	10.3760
173.01	10.3725
173.03	10.3694
173.05	10.3662
173.07	10.3631
173.08	10.3602
173.10	10.3574
173.12	10.3548
173.13	10.3521
173.15	10.3496
173.16	10.3472
173.18	10.3448
173.20	10.3425
173.22	10.3403
173.23	10.3381
173.25	10.3361
173.26	10.3341
173.28	10.3323
173.30	10.3303
173.32	10.3287
173.33	10.3270
173.35	10.3251
173.37	10.3238
173.38	10.3221
173.40	10.3209
173.42	10.3196
173.43	10.3182
173.44	10.3171
173.47	10.3160
173.48	10.3150
173.50	10.3140
173.51	10.3130
173.53	10.3121
173.55	10.3112
173.56	10.3103
173.58	10.3096
173.60	10.3090
173.61	10.3084
173.63	10.3080
173.65	10.3076
173.67	10.3071
173.68	10.3066
173.69	10.3063
173.71	10.3060
173.73	10.3056
173.75	10.3051
173.76	10.3050
173.78	10.3046
173.80	10.3045
173.82	10.3044
173.83	10.3045
173.85	10.3047
173.86	10.3047
173.88	10.3047
173.90	10.3048
173.91	10.3050
173.93	10.3050
173.94	10.3053
173.97	10.3056
173.98	10.3060
174.00	10.3063
174.01	10.3065
174.03	10.3070
174.05	10.3074
174.06	10.3080
174.08	10.3084
174.10	10.3090
174.11	10.3094
174.13	10.3101
174.15	10.3106
174.16	10.3114
174.18	10.3121
174.19	10.3126
174.21	10.3133
174.23	10.3139
174.25	10.3145
174.27	10.3154
174.28	10.3162
174.30	10.3169
174.32	10.3179
174.33	10.3187
174.35	10.3194
174.37	10.3202
174.38	10.3210
174.40	10.3217
174.42	10.3225
174.43	10.3235
174.44	10.3242
174.46	10.3252
174.48	10.3263
174.50	10.3271
174.51	10.3283
174.53	10.3291
174.54	10.3301
174.56	10.3310
174.58	10.3319
174.59	10.3330
174.61	10.3341
174.62	10.3349
174.65	10.3360
174.66	10.3370
174.68	10.3382
174.69	10.3391
174.71	10.3400
174.73	10.3411
174.75	10.3420
174.76	10.3428
174.78	10.3437
174.79	10.3449
174.81	10.3461
174.83	10.3471
174.85	10.3483
174.86	10.3496
174.88	10.3504
174.90	10.3517
174.91	10.3530
174.93	10.3541
174.94	10.3552
174.96	10.3564
174.98	10.3575
175.00	10.3587
175.01	10.3600
175.03	10.3609
175.05	10.3623
175.06	10.3635
175.08	10.3648
175.10	10.3660
175.11	10.3673
175.13	10.3684
175.15	10.3696
175.16	10.3708
175.18	10.3718
175.19	10.3730
175.21	10.3741
175.23	10.3753
175.25	10.3764
175.26	10.3777
175.28	10.3790
175.30	10.3802
175.32	10.3815
175.33	10.3827
175.35	10.3839
175.36	10.3850
175.38	10.3861
175.40	10.3872
175.41	10.3884
175.43	10.3896
175.44	10.3909
175.46	10.3923
175.48	10.3937
175.50	10.3948
175.51	10.3960
175.53	10.3973
175.54	10.3986
175.56	10.3999
175.58	10.4013
175.59	10.4025
175.61	10.4039
175.63	10.4052
175.65	10.4064
175.66	10.4078
175.68	10.4091
175.69	10.4106
175.71	10.4120
175.73	10.4133
175.75	10.4150
175.76	10.4161
175.78	10.4174
175.80	10.4184
175.81	10.4198
175.83	10.4212
175.85	10.4224
175.86	10.4238
175.88	10.4251
175.90	10.4264
175.91	10.4279
175.93	10.4293
175.94	10.4307
175.96	10.4321
175.98	10.4336
175.99	10.4350
176.01	10.4365
176.03	10.4379
176.05	10.4394
176.06	10.4409
176.08	10.4421
176.10	10.4437
176.11	10.4452
176.13	10.4466
176.14	10.4477
176.16	10.4494
176.18	10.4508
176.20	10.4523
176.21	10.4537
176.23	10.4553
176.25	10.4571
176.26	10.4586
176.28	10.4602
176.30	10.4616
176.31	10.4632
176.33	10.4646
176.35	10.4662
176.36	10.4675
176.38	10.4687
176.40	10.4700
176.41	10.4714
176.43	10.4729
176.44	10.4745
176.46	10.4759
176.48	10.4773
176.50	10.4788
176.51	10.4804
176.53	10.4817
176.54	10.4830
176.56	10.4846
176.58	10.4855
176.60	10.4870
176.61	10.4883
176.63	10.4895
176.65	10.4910
176.66	10.4923
176.68	10.4938
176.69	10.4952
176.71	10.4965
176.73	10.4976
176.75	10.4991
176.76	10.5006
176.78	10.5018
176.80	10.5032
176.81	10.5045
176.83	10.5058
176.84	10.5074
176.86	10.5087
176.88	10.5100
176.90	10.5113
176.91	10.5128
176.93	10.5143
176.94	10.5156
176.95	10.5169
176.97	10.5179
176.99	10.5191
177.01	10.5203
177.03	10.5214
177.05	10.5229
177.06	10.5244
177.08	10.5258
177.10	10.5271
177.11	10.5289
177.13	10.5302
177.14	10.5318
177.16	10.5332
177.18	10.5345
177.19	10.5359
177.21	10.5375
177.22	10.5389
177.24	10.5403
177.26	10.5417
177.28	10.5431
177.29	10.5443
177.31	10.5458
177.33	10.5471
177.34	10.5485
177.36	10.5499
177.38	10.5513
177.40	10.5526
177.41	10.5540
177.43	10.5554
177.44	10.5567
177.46	10.5581
177.48	10.5594
177.50	10.5609
177.51	10.5623
177.53	10.5636
177.54	10.5650
177.56	10.5666
177.58	10.5680
177.59	10.5692
177.61	10.5707
177.63	10.5722
177.65	10.5736
177.66	10.5752
177.68	10.5764
177.69	10.5780
177.71	10.5794
177.73	10.5809
177.74	10.5826
177.76	10.5840
177.78	10.5854
177.79	10.5869
177.81	10.5884
177.83	10.5899
177.85	10.5915
177.86	10.5928
177.88	10.5943
177.90	10.5958
177.91	10.5972
177.93	10.5985
177.94	10.6000
177.96	10.6013
177.98	10.6025
178.00	10.6037
178.01	10.6052
178.03	10.6063
178.04	10.6076
178.07	10.6089
178.08	10.6102
178.10	10.6115
178.11	10.6128
178.13	10.6141
178.14	10.6152
178.16	10.6166
178.18	10.6175
178.19	10.6189
178.21	10.6202
178.22	10.6214
178.24	10.6228
178.26	10.6239
178.28	10.6252
178.29	10.6265
178.30	10.6277
178.33	10.6289
178.34	10.6304
178.36	10.6316
178.38	10.6329
178.39	10.6342
178.41	10.6356
178.43	10.6368
178.44	10.6384
178.46	10.6396
178.47	10.6411
178.49	10.6426
178.51	10.6441
178.53	10.6455
178.54	10.6469
178.56	10.6483
178.58	10.6495
178.59	10.6508
178.61	10.6524
178.63	10.6538
178.65	10.6551
178.66	10.6566
178.68	10.6579
178.69	10.6591
178.71	10.6607
178.73	10.6616
178.75	10.6629
178.76	10.6643
178.78	10.6656
178.80	10.6669
178.81	10.6683
178.83	10.6697
178.84	10.6712
178.86	10.6724
178.88	10.6736
178.89	10.6748
178.90	10.6763
178.93	10.6776
178.94	10.6789
178.96	10.6803
178.98	10.6816
178.99	10.6830
179.01	10.6846
179.03	10.6860
179.05	10.6875
179.06	10.6889
179.08	10.6901
179.09	10.6918
179.11	10.6932
179.13	10.6945
179.14	10.6961
179.15	10.6975
179.17	10.6988
179.19	10.7002
179.21	10.7019
179.22	10.7033
179.24	10.7045
179.25	10.7062
179.28	10.7076
179.29	10.7090
179.31	10.7104
179.33	10.7116
179.35	10.7131
179.36	10.7142
179.38	10.7156
179.39	10.7170
179.41	10.7182
179.43	10.7196
179.44	10.7211
179.46	10.7225
179.47	10.7239
179.49	10.7255
179.50	10.7268
179.53	10.7281
179.54	10.7296
179.56	10.7309
179.58	10.7323
179.60	10.7337
179.61	10.7351
179.63	10.7366
179.64	10.7380
179.66	10.7394
179.68	10.7408
179.69	10.7423
179.71	10.7436
179.72	10.7450
179.74	10.7464
179.76	10.7477
179.78	10.7490
179.79	10.7507
179.81	10.7519
179.83	10.7534
179.84	10.7546
179.86	10.7560
179.88	10.7573
179.89	10.7587
179.91	10.7601
179.93	10.7615
179.94	10.7629
179.96	10.7642
179.97	10.7658
179.99	10.7669
180.01	10.7683
180.02	10.7696
180.04	10.7710
180.06	10.7723
180.08	10.7737
180.09	10.7751
180.11	10.7764
180.13	10.7776
180.15	10.7791
180.16	10.7802
180.18	10.7814
180.19	10.7830
180.21	10.7845
180.22	10.7859
180.24	10.7872
180.26	10.7886
180.28	10.7898
180.29	10.7913
180.30	10.7925
180.32	10.7938
180.34	10.7952
180.36	10.7966
180.38	10.7978
180.39	10.7990
180.41	10.8003
180.43	10.8018
180.44	10.8028
180.45	10.8043
180.47	10.8056
180.49	10.8069
180.51	10.8083
180.52	10.8095
180.54	10.8107
180.55	10.8121
180.58	10.8134
180.59	10.8150
180.61	10.8163
180.63	10.8178
180.64	10.8192
180.66	10.8205
180.68	10.8218
180.69	10.8234
180.70	10.8246
180.72	10.8259
180.74	10.8275
180.76	10.8287
180.78	10.8301
180.79	10.8314
180.80	10.8329
180.82	10.8345
180.84	10.8357
180.85	10.8373
180.88	10.8386
180.89	10.8399
180.91	10.8412
180.92	10.8425
180.94	10.8437
180.95	10.8449
180.97	10.8462
180.99	10.8473
181.00	10.8486
181.02	10.8500
181.04	10.8511
181.05	10.8523
181.08	10.8535
181.09	10.8550
181.11	10.8564
181.12	10.8577
181.14	10.8589
181.15	10.8602
181.18	10.8613
181.19	10.8626
181.20	10.8638
181.22	10.8653
181.24	10.8667
181.25	10.8681
181.27	10.8693
181.29	10.8707
181.31	10.8720
181.32	10.8732
181.34	10.8747
181.35	10.8758
181.37	10.8769
181.39	10.8783
181.40	10.8796
181.42	10.8810
181.44	10.8822
181.45	10.8839
181.47	10.8853
181.48	10.8865
181.50	10.8879
181.52	10.8893
181.54	10.8907
181.55	10.8921
181.57	10.8935
181.58	10.8949
181.60	10.8964
181.62	10.8978
181.63	10.8990
181.65	10.9006
181.67	10.9022
181.68	10.9035
181.70	10.9050
181.72	10.9063
181.73	10.9078
181.75	10.9092
181.77	10.9106
181.78	10.9120
181.80	10.9136
181.82	10.9150
181.84	10.9166
181.85	10.9180
181.87	10.9194
181.88	10.9211
181.90	10.9226
181.92	10.9239
181.94	10.9254
181.95	10.9269
181.97	10.9284
181.98	10.9298
182.00	10.9310
182.02	10.9324
182.03	10.9339
182.05	10.9351
182.07	10.9363
182.09	10.9377
182.10	10.9390
182.12	10.9405
182.14	10.9421
182.15	10.9432
182.17	10.9445
182.19	10.9460
182.20	10.9472
182.22	10.9487
182.23	10.9502
182.25	10.9515
182.27	10.9531
182.28	10.9544
182.30	10.9556
182.32	10.9569
182.34	10.9583
182.35	10.9594
182.37	10.9605
182.39	10.9618
182.40	10.9632
182.42	10.9646
182.43	10.9660
182.45	10.9673
182.47	10.9687
182.48	10.9700
182.50	10.9712
182.52	10.9725
182.53	10.9739
182.55	10.9749
182.56	10.9763
182.58	10.9778
182.60	10.9791
182.62	10.9806
182.64	10.9819
182.65	10.9832
182.67	10.9846
182.69	10.9856
182.70	10.9868
182.72	10.9880
182.74	10.9893
182.75	10.9904
182.77	10.9920
182.78	10.9932
182.80	10.9946
182.82	10.9959
182.83	10.9971
182.85	10.9985
182.87	10.9996
182.88	11.0010
182.90	11.0021
182.92	11.0034
182.93	11.0047
182.94	11.0059
182.97	11.0072
182.98	11.0084
183.00	11.0098
183.02	11.0112
183.03	11.0127
183.05	11.0142
183.07	11.0155
183.08	11.0167
183.10	11.0179
183.12	11.0194
183.13	11.0208
183.15	11.0220
183.17	11.0236
183.18	11.0250
183.19	11.0264
183.22	11.0277
183.23	11.0291
183.25	11.0303
183.27	11.0316
183.28	11.0328
183.30	11.0341
183.32	11.0354
183.33	11.0367
183.35	11.0380
183.37	11.0392
183.38	11.0406
183.40	11.0419
183.41	11.0433
183.43	11.0445
183.45	11.0458
183.47	11.0472
183.48	11.0485
183.50	11.0497
183.51	11.0510
183.53	11.0520
183.55	11.0534
183.56	11.0549
183.58	11.0561
183.60	11.0576
183.61	11.0589
183.63	11.0602
183.65	11.0614
183.66	11.0630
183.68	11.0641
183.69	11.0653
183.71	11.0668
183.73	11.0678
183.75	11.0690
183.76	11.0703
183.78	11.0716
183.80	11.0729
183.81	11.0745
183.83	11.0757
183.85	11.0768
183.86	11.0780
183.88	11.0793
183.89	11.0804
183.91	11.0817
183.93	11.0830
183.94	11.0844
183.96	11.0857
183.98	11.0868
184.00	11.0880
184.01	11.0894
184.03	11.0907
184.05	11.0920
184.07	11.0932
184.08	11.0947
184.10	11.0961
184.12	11.0974
184.13	11.0986
184.15	11.0998
184.16	11.1010
184.18	11.1023
184.19	11.1037
184.22	11.1050
184.23	11.1062
184.25	11.1075
184.26	11.1088
184.28	11.1099
184.30	11.1115
184.31	11.1128
184.33	11.1138
184.35	11.1151
184.37	11.1165
184.38	11.1177
184.40	11.1190
184.41	11.1204
184.43	11.1218
184.45	11.1230
184.47	11.1244
184.48	11.1258
184.50	11.1269
184.51	11.1281
184.53	11.1294
184.55	11.1306
184.57	11.1321
184.59	11.1335
184.60	11.1348
184.62	11.1363
184.63	11.1376
184.65	11.1390
184.66	11.1404
184.68	11.1418
184.69	11.1431
184.72	11.1444
184.73	11.1459
184.75	11.1473
184.77	11.1487
184.78	11.1501
184.80	11.1515
184.81	11.1530
184.83	11.1544
184.85	11.1559
184.87	11.1571
184.89	11.1586
184.90	11.1597
184.92	11.1609
184.93	11.1623
184.95	11.1637
184.97	11.1652
184.98	11.1666
185.00	11.1679
185.01	11.1695
185.03	11.1707
185.05	11.1721
185.06	11.1735
185.08	11.1747
185.10	11.1761
185.11	11.1774
185.13	11.1786
185.15	11.1800
185.17	11.1813
185.18	11.1826
185.20	11.1838
185.22	11.1852
185.23	11.1865
185.25	11.1878
185.26	11.1892
185.28	11.1904
185.30	11.1916
185.32	11.1931
185.33	11.1943
185.35	11.1956
185.37	11.1968
185.38	11.1981
185.40	11.1997
185.41	11.2008
185.43	11.2020
185.45	11.2034
185.47	11.2048
185.48	11.2061
185.50	11.2073
185.51	11.2085
185.53	11.2098
185.55	11.2110
185.57	11.2122
185.58	11.2136
185.60	11.2149
185.62	11.2163
185.63	11.2175
185.65	11.2188
185.67	11.2202
185.68	11.2212
185.70	11.2225
185.72	11.2238
185.73	11.2250
185.75	11.2262
185.76	11.2278
185.78	11.2289
185.80	11.2303
185.82	11.2315
185.83	11.2330
185.85	11.2342
185.86	11.2356
185.88	11.2367
185.90	11.2378
185.91	11.2391
185.93	11.2405
185.95	11.2416
185.96	11.2432
185.98	11.2445
186.00	11.2460
186.02	11.2473
186.03	11.2486
186.05	11.2500
186.07	11.2514
186.08	11.2525
186.10	11.2539
186.11	11.2551
186.13	11.2565
186.15	11.2579
186.17	11.2595
186.18	11.2607
186.20	11.2623
186.21	11.2635
186.23	11.2650
186.25	11.2665
186.26	11.2679
186.28	11.2691
186.30	11.2705
186.32	11.2720
186.33	11.2735
186.35	11.2748
186.37	11.2762
186.38	11.2777
186.40	11.2790
186.42	11.2803
186.43	11.2817
186.45	11.2830
186.47	11.2844
186.48	11.2857
186.50	11.2870
186.52	11.2883
186.53	11.2895
186.55	11.2912
186.57	11.2925
186.58	11.2938
186.60	11.2953
186.62	11.2968
186.63	11.2982
186.65	11.2997
186.67	11.3009
186.68	11.3023
186.70	11.3037
186.72	11.3049
186.73	11.3065
186.75	11.3081
186.77	11.3097
186.78	11.3110
186.80	11.3124
186.81	11.3140
186.83	11.3152
186.85	11.3168
186.86	11.3181
186.88	11.3195
186.90	11.3210
186.92	11.3225
186.93	11.3239
186.94	11.3254
186.96	11.3269
186.98	11.3285
187.00	11.3299
187.02	11.3314
187.03	11.3328
187.05	11.3344
187.07	11.3359
187.08	11.3372
187.10	11.3385
187.11	11.3399
187.13	11.3412
187.15	11.3429
187.17	11.3444
187.18	11.3458
187.19	11.3470
187.21	11.3485
187.23	11.3496
187.25	11.3510
187.26	11.3523
187.28	11.3536
187.30	11.3547
187.32	11.3561
187.33	11.3574
187.35	11.3587
187.37	11.3601
187.38	11.3615
187.40	11.3628
187.42	11.3641
187.43	11.3655
187.44	11.3665
187.46	11.3679
187.48	11.3691
187.50	11.3704
187.52	11.3718
187.53	11.3731
187.55	11.3742
187.57	11.3758
187.58	11.3768
187.60	11.3782
187.61	11.3796
187.63	11.3808
187.65	11.3820
187.66	11.3832
187.68	11.3845
187.69	11.3858
187.71	11.3871
187.72	11.3883
187.75	11.3897
187.77	11.3909
187.78	11.3922
187.80	11.3934
187.82	11.3947
187.83	11.3958
187.85	11.3970
187.87	11.3984
187.88	11.3997
187.90	11.4009
187.91	11.4022
187.93	11.4037
187.94	11.4049
187.96	11.4061
187.98	11.4074
188.00	11.4087
188.01	11.4098
188.03	11.4109
188.05	11.4123
188.06	11.4133
188.08	11.4144
188.10	11.4157
188.12	11.4170
188.13	11.4182
188.15	11.4194
188.17	11.4207
188.18	11.4219
188.20	11.4231
188.21	11.4247
188.23	11.4257
188.25	11.4269
188.27	11.4281
188.28	11.4295
188.30	11.4309
188.31	11.4321
188.33	11.4333
188.35	11.4347
188.37	11.4361
188.38	11.4373
188.40	11.4385
188.42	11.4399
188.43	11.4412
188.44	11.4426
188.46	11.4440
188.49	11.4455
188.50	11.4469
188.51	11.4483
188.53	11.4496
188.55	11.4509
188.56	11.4525
188.58	11.4538
188.60	11.4553
188.61	11.4565
188.63	11.4579
188.65	11.4594
188.67	11.4609
188.69	11.4623
188.70	11.4636
188.72	11.4651
188.73	11.4666
188.75	11.4681
188.76	11.4695
188.78	11.4708
188.80	11.4722
188.81	11.4735
188.83	11.4748
188.85	11.4759
188.86	11.4773
188.88	11.4786
188.90	11.4801
188.92	11.4815
188.93	11.4828
188.95	11.4844
188.96	11.4858
188.98	11.4873
189.00	11.4887
189.01	11.4900
189.03	11.4910
189.05	11.4921
189.07	11.4938
189.08	11.4951
189.10	11.4965
189.12	11.4980
189.13	11.4992
189.15	11.5007
189.16	11.5022
189.18	11.5036
189.19	11.5051
189.21	11.5063
189.23	11.5076
189.25	11.5089
189.27	11.5105
189.28	11.5118
189.30	11.5134
189.31	11.5150
189.33	11.5165
189.35	11.5180
189.37	11.5194
189.38	11.5209
189.40	11.5223
189.41	11.5238
189.43	11.5251
189.45	11.5266
189.46	11.5279
189.48	11.5294
189.50	11.5310
189.51	11.5324
189.53	11.5337
189.55	11.5352
189.56	11.5367
189.58	11.5380
189.60	11.5393
189.61	11.5408
189.63	11.5422
189.65	11.5435
189.67	11.5450
189.68	11.5463
189.69	11.5479
189.72	11.5492
189.73	11.5506
189.75	11.5522
189.76	11.5535
189.78	11.5548
189.80	11.5560
189.82	11.5576
189.83	11.5587
189.85	11.5598
189.86	11.5613
189.88	11.5627
189.90	11.5641
189.91	11.5656
189.93	11.5670
189.95	11.5687
189.97	11.5700
189.98	11.5713
190.00	11.5726
190.02	11.5737
190.03	11.5751
190.05	11.5763
190.07	11.5776
190.08	11.5789
190.10	11.5805
190.11	11.5819
190.13	11.5833
190.15	11.5850
190.16	11.5863
190.18	11.5877
190.19	11.5889
190.21	11.5904
190.23	11.5916
190.25	11.5929
190.27	11.5942
190.28	11.5957
190.30	11.5971
190.32	11.5985
190.33	11.5996
190.35	11.6009
190.37	11.6021
190.38	11.6034
190.40	11.6048
190.42	11.6060
190.43	11.6073
190.44	11.6086
190.46	11.6101
190.48	11.6114
190.50	11.6127
190.51	11.6140
190.53	11.6155
190.55	11.6170
190.56	11.6182
190.58	11.6194
190.60	11.6208
190.62	11.6221
190.63	11.6234
190.65	11.6245
190.67	11.6257
190.68	11.6268
190.69	11.6283
190.71	11.6296
190.73	11.6311
190.75	11.6325
190.76	11.6335
190.78	11.6348
190.80	11.6360
190.81	11.6373
190.83	11.6385
190.85	11.6399
190.86	11.6411
190.88	11.6427
190.90	11.6438
190.91	11.6450
190.93	11.6465
190.95	11.6479
190.96	11.6492
190.98	11.6505
191.00	11.6517
191.02	11.6529
191.03	11.6543
191.05	11.6557
191.07	11.6569
191.08	11.6583
191.10	11.6596
191.11	11.6611
191.13	11.6625
191.15	11.6640
191.16	11.6654
191.18	11.6667
191.19	11.6680
191.21	11.6694
191.23	11.6708
191.24	11.6722
191.26	11.6734
191.28	11.6750
191.30	11.6765
191.31	11.6781
191.33	11.6795
191.35	11.6810
191.36	11.6823
191.38	11.6835
191.40	11.6851
191.41	11.6863
191.43	11.6878
191.44	11.6893
191.46	11.6906
191.48	11.6923
191.50	11.6938
191.51	11.6951
191.53	11.6966
191.55	11.6982
191.57	11.6997
191.58	11.7012
191.59	11.7028
191.61	11.7042
191.63	11.7057
191.65	11.7072
191.67	11.7084
191.68	11.7100
191.69	11.7116
191.71	11.7129
191.73	11.7145
191.75	11.7160
191.76	11.7176
191.78	11.7190
191.79	11.7204
191.81	11.7218
191.83	11.7233
191.84	11.7247
191.86	11.7261
191.88	11.7275
191.89	11.7290
191.91	11.7304
191.93	11.7318
191.94	11.7333
191.96	11.7346
191.98	11.7358
192.00	11.7373
192.01	11.7386
192.03	11.7399
192.05	11.7412
192.06	11.7427
192.08	11.7440
192.10	11.7454
192.11	11.7467
192.13	11.7479
192.15	11.7493
192.16	11.7505
192.18	11.7519
192.19	11.7530
192.21	11.7544
192.23	11.7558
192.25	11.7571
192.26	11.7584
192.28	11.7598
192.30	11.7612
192.31	11.7627
192.33	11.7640
192.35	11.7654
192.36	11.7667
192.38	11.7682
192.39	11.7694
192.41	11.7707
192.43	11.7721
192.44	11.7736
192.46	11.7749
192.48	11.7763
192.50	11.7778
192.51	11.7790
192.53	11.7801
192.55	11.7816
192.56	11.7829
192.58	11.7844
192.59	11.7859
192.61	11.7870
192.63	11.7880
192.65	11.7896
192.66	11.7908
192.68	11.7920
192.69	11.7932
192.71	11.7945
192.73	11.7960
192.75	11.7973
192.76	11.7986
192.78	11.8001
192.79	11.8015
192.81	11.8028
192.83	11.8039
192.85	11.8053
192.86	11.8068
192.88	11.8083
192.90	11.8097
192.91	11.8111
192.93	11.8124
192.94	11.8139
192.96	11.8152
192.98	11.8167
193.00	11.8179
193.01	11.8191
193.03	11.8206
193.05	11.8221
193.06	11.8235
193.08	11.8249
193.10	11.8261
193.11	11.8276
193.13	11.8288
193.14	11.8300
193.16	11.8314
193.18	11.8328
193.19	11.8341
193.21	11.8355
193.23	11.8366
193.25	11.8381
193.26	11.8394
193.28	11.8406
193.30	11.8422
193.31	11.8435
193.33	11.8450
193.35	11.8463
193.36	11.8477
193.38	11.8491
193.40	11.8505
193.41	11.8520
193.43	11.8533
193.44	11.8548
193.46	11.8563
193.48	11.8579
193.50	11.8593
193.51	11.8605
193.53	11.8620
193.54	11.8635
193.56	11.8647
193.58	11.8659
193.60	11.8672
193.61	11.8686
193.63	11.8701
193.64	11.8716
193.66	11.8729
193.68	11.8744
193.69	11.8758
193.71	11.8771
193.72	11.8784
193.74	11.8799
193.76	11.8814
193.78	11.8827
193.79	11.8841
193.81	11.8855
193.83	11.8870
193.85	11.8887
193.86	11.8900
193.88	11.8914
193.90	11.8927
193.91	11.8940
193.93	11.8955
193.94	11.8967
193.96	11.8981
193.97	11.8995
193.99	11.9007
194.01	11.9022
194.03	11.9037
194.05	11.9051
194.06	11.9065
194.08	11.9081
194.10	11.9095
194.11	11.9109
194.13	11.9123
194.15	11.9137
194.16	11.9149
194.18	11.9162
194.19	11.9178
194.21	11.9192
194.23	11.9209
194.25	11.9223
194.26	11.9238
194.28	11.9254
194.30	11.9270
194.31	11.9281
194.33	11.9295
194.34	11.9309
194.36	11.9321
194.38	11.9335
194.40	11.9351
194.41	11.9366
194.43	11.9380
194.44	11.9394
194.46	11.9407
194.47	11.9422
194.50	11.9437
194.51	11.9450
194.53	11.9464
194.55	11.9478
194.56	11.9489
194.58	11.9505
194.59	11.9519
194.61	11.9533
194.63	11.9549
194.65	11.9562
194.66	11.9575
194.68	11.9589
194.69	11.9602
194.71	11.9614
194.73	11.9624
194.75	11.9640
194.76	11.9653
194.78	11.9667
194.80	11.9679
194.81	11.9694
194.83	11.9709
194.84	11.9724
194.86	11.9737
194.88	11.9751
194.89	11.9764
194.91	11.9779
194.93	11.9793
194.94	11.9804
194.96	11.9817
194.98	11.9830
194.99	11.9843
195.01	11.9856
195.03	11.9872
195.05	11.9885
195.06	11.9896
195.08	11.9912
195.10	11.9923
195.11	11.9937
195.13	11.9951
195.15	11.9963
195.16	11.9978
195.18	11.9991
195.19	12.0005
195.21	12.0021
195.23	12.0034
195.25	12.0048
195.26	12.0064
195.28	12.0079
195.29	12.0093
195.31	12.0107
195.33	12.0121
195.35	12.0135
195.36	12.0151
195.38	12.0164
195.40	12.0177
195.41	12.0191
195.43	12.0206
195.44	12.0222
195.46	12.0235
195.48	12.0251
195.50	12.0266
195.51	12.0281
195.53	12.0298
195.54	12.0311
195.56	12.0326
195.58	12.0341
195.60	12.0355
195.61	12.0370
195.63	12.0384
195.64	12.0398
195.66	12.0415
195.68	12.0431
195.69	12.0446
195.71	12.0459
195.73	12.0473
195.74	12.0487
195.76	12.0502
195.78	12.0518
195.80	12.0531
195.81	12.0545
195.83	12.0561
195.85	12.0574
195.87	12.0587
195.88	12.0603
195.90	12.0615
195.91	12.0630
195.93	12.0643
195.94	12.0655
195.96	12.0670
195.98	12.0685
196.00	12.0699
196.01	12.0713
196.03	12.0725
196.05	12.0738
196.06	12.0751
196.08	12.0763
196.10	12.0776
196.11	12.0790
196.13	12.0804
196.15	12.0817
196.16	12.0834
196.18	12.0849
196.19	12.0864
196.21	12.0877
196.23	12.0891
196.25	12.0904
196.26	12.0921
196.28	12.0934
196.30	12.0949
196.31	12.0965
196.33	12.0980
196.35	12.0995
196.37	12.1010
196.38	12.1024
196.40	12.1039
196.41	12.1055
196.43	12.1068
196.44	12.1082
196.46	12.1097
196.47	12.1113
196.49	12.1126
196.51	12.1142
196.53	12.1156
196.55	12.1170
196.56	12.1184
196.58	12.1200
196.60	12.1216
196.61	12.1233
196.63	12.1248
196.65	12.1263
196.66	12.1277
196.68	12.1292
196.69	12.1306
196.71	12.1320
196.73	12.1335
196.75	12.1351
196.76	12.1366
196.78	12.1382
196.80	12.1396
196.82	12.1411
196.83	12.1424
196.85	12.1438
196.87	12.1454
196.88	12.1465
196.90	12.1480
196.92	12.1494
196.93	12.1509
196.94	12.1523
196.96	12.1537
196.98	12.1550
197.00	12.1565
197.01	12.1580
197.03	12.1592
197.05	12.1606
197.06	12.1619
197.08	12.1634
197.10	12.1648
197.11	12.1663
197.13	12.1676
197.15	12.1691
197.16	12.1706
197.18	12.1722
197.19	12.1736
197.21	12.1750
197.23	12.1766
197.25	12.1779
197.26	12.1795
197.28	12.1810
197.30	12.1827
197.31	12.1840
197.33	12.1857
197.35	12.1871
197.36	12.1887
197.38	12.1901
197.40	12.1914
197.41	12.1929
197.43	12.1946
197.44	12.1959
197.46	12.1975
197.48	12.1988
197.50	12.2002
197.51	12.2016
197.53	12.2030
197.55	12.2044
197.56	12.2060
197.58	12.2075
197.60	12.2089
197.61	12.2100
197.63	12.2115
197.65	12.2130
197.66	12.2147
197.68	12.2160
197.69	12.2175
197.71	12.2190
197.72	12.2205
197.75	12.2219
197.76	12.2235
197.78	12.2250
197.80	12.2266
197.81	12.2279
197.83	12.2296
197.85	12.2311
197.86	12.2324
197.88	12.2339
197.90	12.2355
197.91	12.2369
197.93	12.2386
197.94	12.2399
197.96	12.2414
197.98	12.2429
198.00	12.2445
198.01	12.2461
198.03	12.2476
198.05	12.2490
198.06	12.2506
198.08	12.2522
198.10	12.2536
198.11	12.2550
198.13	12.2568
198.14	12.2583
198.16	12.2599
198.18	12.2616
198.19	12.2632
198.21	12.2649
198.23	12.2664
198.25	12.2679
198.26	12.2694
198.28	12.2710
198.30	12.2727
198.31	12.2743
198.33	12.2759
198.34	12.2777
198.36	12.2795
198.38	12.2814
198.40	12.2829
198.41	12.2846
198.43	12.2861
198.44	12.2876
198.46	12.2894
198.48	12.2910
198.50	12.2928
198.51	12.2944
198.53	12.2959
198.54	12.2975
198.56	12.2990
198.58	12.3007
198.59	12.3022
198.61	12.3035
198.63	12.3049
198.65	12.3064
198.66	12.3076
198.68	12.3089
198.69	12.3099
198.72	12.3110
198.73	12.3124
198.75	12.3137
198.77	12.3148
198.78	12.3162
198.79	12.3170
198.81	12.3182
198.83	12.3194
198.85	12.3203
198.86	12.3212
198.88	12.3223
198.90	12.3231
198.91	12.3239
198.93	12.3250
198.94	12.3260
198.96	12.3271
198.98	12.3278
199.00	12.3286
199.01	12.3295
199.03	12.3304
199.05	12.3312
199.06	12.3319
199.08	12.3326
199.10	12.3332
199.11	12.3342
199.13	12.3351
199.15	12.3357
199.16	12.3365
199.18	12.3372
199.19	12.3379
199.21	12.3387
199.23	12.3394
199.25	12.3401
199.26	12.3406
199.28	12.3411
199.30	12.3418
199.31	12.3425
199.33	12.3433
199.35	12.3439
199.36	12.3446
199.38	12.3452
199.39	12.3460
199.41	12.3468
199.43	12.3478
199.44	12.3485
199.46	12.3495
199.48	12.3505
199.50	12.3513
199.51	12.3522
199.53	12.3531
199.55	12.3542
199.56	12.3552
199.58	12.3559
199.60	12.3570
199.61	12.3581
199.63	12.3590
199.65	12.3599
199.66	12.3608
199.68	12.3619
199.69	12.3629
199.71	12.3639
199.73	12.3650
199.75	12.3661
199.76	12.3671
199.78	12.3680
199.80	12.3690
199.81	12.3698
199.83	12.3709
199.85	12.3718
199.86	12.3729
199.88	12.3739
199.89	12.3749
