Filename:	D:\TGAdata\„∆√ŒœÈ\20150506\10%5mm.pdid

Temperature (°„C)	Heat Flow Endo Up (mW)
10.21	1.2729
10.21	1.2960
10.21	1.3051
10.21	1.3023
10.21	1.2911
10.21	1.2746
10.22	1.2558
10.22	1.2373
10.22	1.2199
10.23	1.2040
10.23	1.1908
10.23	1.1794
10.25	1.1703
10.25	1.1631
10.26	1.1573
10.27	1.1525
10.28	1.1483
10.29	1.1443
10.30	1.1408
10.31	1.1371
10.33	1.1329
10.34	1.1282
10.35	1.1225
10.36	1.1159
10.37	1.1087
10.39	1.1006
10.40	1.0920
10.42	1.0828
10.43	1.0736
10.44	1.0644
10.46	1.0551
10.48	1.0460
10.49	1.0370
10.51	1.0284
10.52	1.0204
10.53	1.0129
10.55	1.0064
10.57	1.0007
10.58	0.9959
10.60	0.9924
10.61	0.9901
10.63	0.9887
10.64	0.9887
10.66	0.9901
10.68	0.9928
10.69	0.9969
10.71	1.0024
10.73	1.0093
10.74	1.0176
10.76	1.0273
10.77	1.0382
10.78	1.0505
10.80	1.0642
10.82	1.0787
10.83	1.0945
10.85	1.1114
10.87	1.1291
10.88	1.1480
10.90	1.1675
10.92	1.1881
10.93	1.2095
10.95	1.2316
10.96	1.2543
10.98	1.2776
11.00	1.3016
11.01	1.3261
11.03	1.3512
11.05	1.3765
11.06	1.4020
11.08	1.4279
11.10	1.4541
11.11	1.4805
11.13	1.5075
11.15	1.5345
11.16	1.5611
11.18	1.5881
11.19	1.6151
11.21	1.6419
11.23	1.6685
11.25	1.6951
11.26	1.7217
11.28	1.7482
11.29	1.7744
11.31	1.8004
11.33	1.8262
11.34	1.8517
11.35	1.8771
11.37	1.9021
11.39	1.9267
11.41	1.9511
11.43	1.9752
11.44	1.9993
11.45	2.0230
11.47	2.0464
11.49	2.0692
11.51	2.0917
11.52	2.1139
11.53	2.1356
11.55	2.1571
11.57	2.1783
11.59	2.1990
11.60	2.2194
11.62	2.2395
11.64	2.2591
11.66	2.2785
11.67	2.2972
11.69	2.3154
11.70	2.3337
11.72	2.3514
11.74	2.3689
11.75	2.3859
11.78	2.4027
11.79	2.4192
11.80	2.4357
11.82	2.4516
11.84	2.4673
11.85	2.4827
11.87	2.4976
11.88	2.5121
11.90	2.5262
11.92	2.5399
11.94	2.5535
11.95	2.5664
11.97	2.5793
11.99	2.5919
12.00	2.6042
12.02	2.6162
12.04	2.6278
12.06	2.6394
12.07	2.6506
12.08	2.6614
12.10	2.6722
12.12	2.6828
12.14	2.6931
12.16	2.7028
12.18	2.7128
12.19	2.7222
12.20	2.7315
12.22	2.7405
12.24	2.7494
12.25	2.7578
12.27	2.7661
12.29	2.7743
12.31	2.7825
12.32	2.7903
12.33	2.7979
12.35	2.8051
12.37	2.8123
12.39	2.8194
12.40	2.8262
12.42	2.8329
12.43	2.8392
12.45	2.8455
12.47	2.8518
12.49	2.8578
12.50	2.8641
12.52	2.8700
12.53	2.8758
12.55	2.8812
12.57	2.8866
12.58	2.8921
12.60	2.8972
12.62	2.9023
12.63	2.9071
12.65	2.9117
12.67	2.9163
12.69	2.9207
12.70	2.9251
12.72	2.9293
12.74	2.9332
12.75	2.9371
12.77	2.9412
12.78	2.9450
12.80	2.9487
12.82	2.9524
12.83	2.9560
12.85	2.9594
12.87	2.9628
12.88	2.9661
12.90	2.9692
12.92	2.9723
12.93	2.9753
12.95	2.9782
12.97	2.9811
12.98	2.9839
13.00	2.9867
13.02	2.9895
13.04	2.9920
13.05	2.9946
13.07	2.9971
13.09	2.9995
13.10	3.0018
13.12	3.0040
13.13	3.0062
13.15	3.0084
13.17	3.0109
13.18	3.0132
13.20	3.0157
13.22	3.0180
13.24	3.0201
13.25	3.0223
13.27	3.0244
13.28	3.0262
13.30	3.0282
13.32	3.0299
13.34	3.0314
13.35	3.0331
13.37	3.0348
13.39	3.0364
13.40	3.0380
13.42	3.0394
13.44	3.0410
13.45	3.0426
13.47	3.0442
13.48	3.0457
13.50	3.0471
13.52	3.0485
13.54	3.0497
13.55	3.0511
13.56	3.0524
13.58	3.0536
13.60	3.0549
13.62	3.0560
13.64	3.0571
13.65	3.0584
13.67	3.0597
13.69	3.0607
13.70	3.0619
13.72	3.0629
13.73	3.0639
13.75	3.0649
13.77	3.0660
13.79	3.0668
13.80	3.0675
13.82	3.0687
13.84	3.0695
13.85	3.0704
13.87	3.0717
13.89	3.0729
13.90	3.0740
13.92	3.0751
13.93	3.0759
13.95	3.0770
13.97	3.0778
13.98	3.0787
14.00	3.0795
14.02	3.0804
14.04	3.0812
14.05	3.0818
14.07	3.0825
14.08	3.0834
14.10	3.0841
14.12	3.0849
14.14	3.0856
14.15	3.0863
14.17	3.0871
14.18	3.0878
14.20	3.0884
14.22	3.0892
14.24	3.0899
14.25	3.0906
14.27	3.0913
14.29	3.0918
14.30	3.0925
14.33	3.0930
14.34	3.0936
14.36	3.0941
14.38	3.0947
14.39	3.0954
14.40	3.0960
14.42	3.0965
14.43	3.0971
14.45	3.0977
14.47	3.0983
14.48	3.0988
14.50	3.0994
14.52	3.0999
14.54	3.1006
14.55	3.1012
14.57	3.1021
14.59	3.1028
14.60	3.1035
14.62	3.1043
14.64	3.1048
14.65	3.1054
14.67	3.1060
14.69	3.1064
14.70	3.1071
14.72	3.1077
14.74	3.1080
14.75	3.1086
14.78	3.1091
14.79	3.1096
14.80	3.1102
14.82	3.1108
14.84	3.1114
14.85	3.1119
14.87	3.1123
14.88	3.1130
14.90	3.1135
14.91	3.1138
14.93	3.1142
14.95	3.1146
14.97	3.1152
14.99	3.1157
15.00	3.1162
15.03	3.1170
15.04	3.1175
15.05	3.1179
15.07	3.1184
15.09	3.1188
15.10	3.1193
15.12	3.1198
15.14	3.1202
15.15	3.1205
15.17	3.1209
15.18	3.1214
15.20	3.1218
15.22	3.1223
15.24	3.1229
15.25	3.1236
15.27	3.1241
15.29	3.1246
15.30	3.1253
15.32	3.1257
15.34	3.1264
15.35	3.1267
15.37	3.1272
15.39	3.1276
15.40	3.1280
15.43	3.1285
15.44	3.1288
15.45	3.1293
15.47	3.1296
15.49	3.1299
15.50	3.1304
15.52	3.1307
15.54	3.1311
15.55	3.1316
15.57	3.1321
15.59	3.1324
15.61	3.1330
15.63	3.1334
15.64	3.1339
15.66	3.1342
15.67	3.1346
15.69	3.1351
15.71	3.1357
15.73	3.1364
15.74	3.1367
15.75	3.1371
15.77	3.1375
15.79	3.1378
15.80	3.1382
15.83	3.1386
15.84	3.1389
15.85	3.1392
15.88	3.1396
15.89	3.1402
15.90	3.1407
15.92	3.1414
15.93	3.1419
15.95	3.1426
15.97	3.1431
15.98	3.1434
16.00	3.1439
16.02	3.1442
16.04	3.1446
16.05	3.1451
16.07	3.1455
16.09	3.1459
16.11	3.1463
16.12	3.1468
16.14	3.1471
16.15	3.1476
16.17	3.1481
16.19	3.1486
16.20	3.1490
16.22	3.1495
16.23	3.1498
16.25	3.1502
16.27	3.1506
16.29	3.1508
16.30	3.1516
16.32	3.1520
16.34	3.1525
16.35	3.1529
16.37	3.1534
16.39	3.1538
16.40	3.1542
16.43	3.1545
16.44	3.1550
16.45	3.1554
16.46	3.1558
16.48	3.1560
16.50	3.1566
16.52	3.1570
16.54	3.1574
16.55	3.1577
16.57	3.1583
16.59	3.1589
16.61	3.1594
16.62	3.1599
16.64	3.1605
16.65	3.1609
16.67	3.1612
16.69	3.1615
16.70	3.1619
16.73	3.1623
16.74	3.1628
16.76	3.1631
16.77	3.1635
16.79	3.1638
16.80	3.1643
16.82	3.1646
16.84	3.1648
16.85	3.1651
16.87	3.1656
16.89	3.1661
16.91	3.1665
16.92	3.1669
16.93	3.1673
16.95	3.1678
16.97	3.1683
16.99	3.1685
17.00	3.1689
17.02	3.1693
17.04	3.1698
17.06	3.1703
17.07	3.1707
17.09	3.1713
17.10	3.1720
17.12	3.1726
17.14	3.1732
17.15	3.1739
17.17	3.1745
17.19	3.1749
17.21	3.1755
17.23	3.1760
17.24	3.1766
17.25	3.1771
17.27	3.1776
17.28	3.1781
17.30	3.1784
17.32	3.1787
17.34	3.1790
17.35	3.1795
17.37	3.1799
17.39	3.1804
17.40	3.1809
17.42	3.1815
17.44	3.1818
17.45	3.1823
17.47	3.1829
17.49	3.1835
17.50	3.1842
17.52	3.1849
17.54	3.1856
17.55	3.1861
17.57	3.1866
17.59	3.1871
17.61	3.1877
17.62	3.1883
17.64	3.1888
17.65	3.1893
17.67	3.1899
17.69	3.1904
17.70	3.1909
17.72	3.1913
17.74	3.1916
17.75	3.1919
17.77	3.1924
17.78	3.1928
17.80	3.1934
17.82	3.1937
17.84	3.1944
17.86	3.1951
17.87	3.1957
17.89	3.1962
17.90	3.1969
17.92	3.1972
17.93	3.1976
17.95	3.1981
17.97	3.1985
17.99	3.1988
18.00	3.1991
18.02	3.1995
18.03	3.1997
18.05	3.2002
18.07	3.2007
18.08	3.2011
18.09	3.2015
18.12	3.2018
18.13	3.2024
18.15	3.2027
18.17	3.2028
18.18	3.2033
18.20	3.2038
18.22	3.2043
18.23	3.2049
18.25	3.2054
18.27	3.2058
18.29	3.2065
18.30	3.2068
18.32	3.2071
18.34	3.2074
18.35	3.2078
18.37	3.2081
18.38	3.2083
18.40	3.2087
18.42	3.2088
18.44	3.2091
18.45	3.2094
18.47	3.2096
18.48	3.2099
18.50	3.2101
18.52	3.2105
18.53	3.2109
18.55	3.2114
18.56	3.2120
18.58	3.2125
18.60	3.2131
18.62	3.2135
18.63	3.2138
18.65	3.2143
18.67	3.2147
18.69	3.2151
18.70	3.2154
18.72	3.2159
18.73	3.2162
18.75	3.2164
18.77	3.2168
18.78	3.2170
18.80	3.2173
18.82	3.2175
18.83	3.2178
18.85	3.2181
18.87	3.2184
18.89	3.2188
18.90	3.2191
18.92	3.2191
18.93	3.2195
18.95	3.2202
18.97	3.2207
18.98	3.2212
19.00	3.2216
19.02	3.2221
19.04	3.2225
19.05	3.2229
19.07	3.2233
19.08	3.2235
19.10	3.2238
19.12	3.2241
19.14	3.2242
19.15	3.2246
19.17	3.2247
19.18	3.2250
19.20	3.2253
19.22	3.2254
19.24	3.2257
19.25	3.2261
19.27	3.2262
19.29	3.2265
19.30	3.2270
19.31	3.2275
19.33	3.2279
19.35	3.2284
19.37	3.2287
19.38	3.2293
19.40	3.2298
19.42	3.2302
19.43	3.2307
19.45	3.2307
19.47	3.2308
19.48	3.2312
19.50	3.2315
19.51	3.2317
19.53	3.2321
19.55	3.2323
19.56	3.2327
19.58	3.2330
19.60	3.2332
19.62	3.2334
19.63	3.2335
19.65	3.2337
19.67	3.2342
19.69	3.2347
19.70	3.2352
19.72	3.2357
19.73	3.2363
19.75	3.2368
19.77	3.2373
19.78	3.2377
19.79	3.2381
19.81	3.2384
19.83	3.2389
19.85	3.2393
19.86	3.2395
19.88	3.2399
19.90	3.2403
19.91	3.2405
19.93	3.2406
19.95	3.2410
19.96	3.2412
19.98	3.2415
20.00	3.2419
20.01	3.2422
20.03	3.2428
20.05	3.2435
20.07	3.2441
20.08	3.2446
20.10	3.2453
20.11	3.2456
20.13	3.2461
20.15	3.2465
20.17	3.2469
20.18	3.2474
20.20	3.2478
20.21	3.2481
20.23	3.2487
20.25	3.2490
20.26	3.2492
20.28	3.2496
20.30	3.2499
20.31	3.2499
20.33	3.2502
20.34	3.2505
20.36	3.2507
20.38	3.2512
20.39	3.2518
20.41	3.2523
20.43	3.2531
20.45	3.2538
20.46	3.2544
20.48	3.2550
20.50	3.2555
20.51	3.2560
20.53	3.2563
20.54	3.2567
20.56	3.2570
20.58	3.2574
20.59	3.2577
20.61	3.2579
20.63	3.2582
20.65	3.2585
20.66	3.2589
20.68	3.2593
20.70	3.2595
20.71	3.2597
20.73	3.2599
20.75	3.2602
20.76	3.2605
20.78	3.2609
20.80	3.2617
20.81	3.2621
20.82	3.2628
20.84	3.2632
20.85	3.2636
20.88	3.2641
20.90	3.2652
20.91	3.2658
20.93	3.2655
20.94	3.2658
20.96	3.2660
20.98	3.2662
20.99	3.2667
21.01	3.2670
21.03	3.2672
21.05	3.2675
21.06	3.2679
21.07	3.2682
21.09	3.2684
21.11	3.2687
21.13	3.2692
21.15	3.2698
21.16	3.2704
21.18	3.2709
21.20	3.2713
21.21	3.2717
21.23	3.2723
21.24	3.2727
21.25	3.2732
21.28	3.2736
21.29	3.2740
21.31	3.2744
21.32	3.2749
21.34	3.2754
21.36	3.2757
21.38	3.2759
21.40	3.2763
21.41	3.2766
21.43	3.2769
21.44	3.2771
21.46	3.2775
21.48	3.2777
21.50	3.2782
21.51	3.2790
21.53	3.2795
21.54	3.2802
21.56	3.2808
21.57	3.2811
21.59	3.2817
21.61	3.2823
21.63	3.2828
21.64	3.2831
21.65	3.2833
21.67	3.2837
21.69	3.2840
21.71	3.2841
21.73	3.2845
21.74	3.2847
21.76	3.2849
21.78	3.2854
21.79	3.2856
21.80	3.2860
21.82	3.2864
21.84	3.2867
21.85	3.2870
21.87	3.2876
21.89	3.2882
21.91	3.2886
21.93	3.2892
21.94	3.2898
21.96	3.2902
21.98	3.2908
21.99	3.2915
22.00	3.2917
22.03	3.2922
22.04	3.2926
22.06	3.2929
22.07	3.2931
22.09	3.2936
22.10	3.2939
22.13	3.2944
22.14	3.2947
22.15	3.2949
22.17	3.2951
22.18	3.2955
22.20	3.2957
22.23	3.2963
22.24	3.2970
22.26	3.2974
22.27	3.2980
22.28	3.2984
22.30	3.2987
22.32	3.2992
22.34	3.2999
22.35	3.3004
22.37	3.3008
22.39	3.3014
22.40	3.3017
22.42	3.3020
22.44	3.3027
22.46	3.3030
22.48	3.3032
22.49	3.3035
22.50	3.3037
22.53	3.3041
22.54	3.3046
22.55	3.3048
22.57	3.3052
22.59	3.3057
22.60	3.3062
22.62	3.3068
22.63	3.3074
22.65	3.3077
22.68	3.3083
22.69	3.3088
22.71	3.3093
22.72	3.3099
22.74	3.3103
22.75	3.3104
22.78	3.3108
22.79	3.3113
22.80	3.3115
22.82	3.3120
22.84	3.3123
22.85	3.3125
22.87	3.3131
22.89	3.3133
22.90	3.3137
22.92	3.3140
22.93	3.3142
22.95	3.3148
22.97	3.3152
22.99	3.3158
23.00	3.3164
23.02	3.3169
23.03	3.3173
23.05	3.3178
23.07	3.3182
23.09	3.3184
23.10	3.3187
23.13	3.3192
23.14	3.3195
23.15	3.3199
23.17	3.3203
23.18	3.3206
23.20	3.3210
23.22	3.3214
23.24	3.3217
23.25	3.3220
23.27	3.3224
23.28	3.3227
23.30	3.3231
23.32	3.3237
23.34	3.3242
23.35	3.3247
23.37	3.3253
23.39	3.3258
23.40	3.3262
23.42	3.3268
23.44	3.3272
23.45	3.3275
23.47	3.3280
23.48	3.3283
23.50	3.3289
23.52	3.3291
23.54	3.3294
23.55	3.3298
23.57	3.3301
23.58	3.3303
23.60	3.3306
23.62	3.3311
23.63	3.3314
23.65	3.3316
23.67	3.3323
23.68	3.3329
23.70	3.3335
23.71	3.3341
23.73	3.3344
23.75	3.3350
23.77	3.3352
23.78	3.3358
23.78	3.3360
23.81	3.3364
23.83	3.3367
23.85	3.3370
23.87	3.3375
23.88	3.3379
23.90	3.3383
23.92	3.3385
23.93	3.3388
23.95	3.3391
23.97	3.3393
23.98	3.3398
24.00	3.3402
24.01	3.3405
24.03	3.3410
24.05	3.3414
24.07	3.3420
24.08	3.3425
24.10	3.3430
24.11	3.3434
24.13	3.3438
24.15	3.3442
24.17	3.3448
24.18	3.3451
24.19	3.3453
24.22	3.3458
24.24	3.3460
24.25	3.3465
24.27	3.3466
24.28	3.3469
24.30	3.3472
24.31	3.3474
24.33	3.3478
24.35	3.3483
24.37	3.3486
24.38	3.3490
24.40	3.3495
24.41	3.3500
24.43	3.3506
24.45	3.3510
24.47	3.3516
24.48	3.3521
24.50	3.3526
24.51	3.3533
24.53	3.3538
24.55	3.3541
24.57	3.3547
24.58	3.3549
24.60	3.3553
24.61	3.3559
24.63	3.3561
24.65	3.3566
24.66	3.3570
24.68	3.3572
24.69	3.3575
24.71	3.3579
24.73	3.3582
24.75	3.3586
24.76	3.3591
24.78	3.3596
24.79	3.3602
24.81	3.3609
24.83	3.3613
24.84	3.3617
24.87	3.3624
24.88	3.3628
24.90	3.3630
24.91	3.3636
24.93	3.3640
24.94	3.3644
24.96	3.3649
24.98	3.3651
25.00	3.3657
25.01	3.3661
25.03	3.3663
25.04	3.3666
25.06	3.3670
25.07	3.3673
25.09	3.3676
25.11	3.3681
25.13	3.3686
25.14	3.3692
25.15	3.3697
25.18	3.3703
25.19	3.3707
25.21	3.3714
25.23	3.3719
25.24	3.3722
25.26	3.3728
25.28	3.3731
25.30	3.3735
25.31	3.3740
25.33	3.3744
25.34	3.3746
25.36	3.3752
25.38	3.3756
25.40	3.3762
25.41	3.3764
25.43	3.3767
25.45	3.3772
25.47	3.3775
25.48	3.3779
25.49	3.3785
25.51	3.3792
25.52	3.3797
25.54	3.3805
25.56	3.3810
25.58	3.3814
25.59	3.3821
25.61	3.3824
25.62	3.3827
25.64	3.3831
25.67	3.3833
25.68	3.3839
25.69	3.3843
25.71	3.3847
25.73	3.3850
25.75	3.3853
25.76	3.3857
25.78	3.3858
25.79	3.3862
25.81	3.3866
25.82	3.3870
25.84	3.3875
25.85	3.3882
25.88	3.3887
25.89	3.3893
25.91	3.3900
25.93	3.3906
25.94	3.3911
25.96	3.3914
25.98	3.3917
25.99	3.3921
26.01	3.3925
26.03	3.3927
26.04	3.3932
26.06	3.3935
26.08	3.3940
26.09	3.3943
26.10	3.3946
26.12	3.3951
26.14	3.3954
26.16	3.3957
26.17	3.3961
26.19	3.3964
26.21	3.3972
26.22	3.3977
26.24	3.3983
26.25	3.3989
26.28	3.3994
26.29	3.3998
26.31	3.4003
26.32	3.4007
26.34	3.4013
26.36	3.4016
26.37	3.4021
26.39	3.4025
26.41	3.4029
26.43	3.4031
26.44	3.4035
26.45	3.4041
26.47	3.4045
26.49	3.4051
26.50	3.4055
26.52	3.4060
26.54	3.4064
26.56	3.4069
26.57	3.4076
26.59	3.4082
26.61	3.4088
26.63	3.4094
26.63	3.4097
26.65	3.4103
26.68	3.4106
26.69	3.4112
26.70	3.4118
26.72	3.4124
26.74	3.4129
26.75	3.4131
26.78	3.4134
26.79	3.4138
26.80	3.4142
26.82	3.4144
26.84	3.4149
26.85	3.4154
26.88	3.4156
26.89	3.4161
26.91	3.4163
26.93	3.4168
26.94	3.4178
26.96	3.4188
26.98	3.4198
26.99	3.4205
27.00	3.4211
27.02	3.4215
27.04	3.4220
27.05	3.4223
27.07	3.4225
27.09	3.4226
27.10	3.4227
27.12	3.4230
27.13	3.4231
27.15	3.4234
27.17	3.4236
27.19	3.4238
27.21	3.4242
27.22	3.4245
27.24	3.4248
27.25	3.4252
27.27	3.4256
27.29	3.4259
27.30	3.4264
27.32	3.4268
27.34	3.4273
27.36	3.4277
27.38	3.4283
27.39	3.4287
27.41	3.4290
27.42	3.4292
27.44	3.4295
27.45	3.4297
27.47	3.4298
27.48	3.4302
27.50	3.4303
27.52	3.4306
27.54	3.4309
27.55	3.4312
27.57	3.4313
27.59	3.4317
27.61	3.4320
27.62	3.4321
27.64	3.4325
27.65	3.4328
27.67	3.4333
27.69	3.4336
27.71	3.4341
27.72	3.4344
27.74	3.4350
27.76	3.4354
27.78	3.4359
27.79	3.4362
27.80	3.4366
27.82	3.4369
27.83	3.4372
27.85	3.4374
27.88	3.4376
27.89	3.4381
27.90	3.4384
27.93	3.4388
27.94	3.4391
27.95	3.4391
27.97	3.4396
27.99	3.4399
28.01	3.4404
28.03	3.4412
28.04	3.4421
28.06	3.4427
28.07	3.4435
28.09	3.4439
28.10	3.4445
28.12	3.4451
28.14	3.4457
28.15	3.4462
28.17	3.4466
28.19	3.4473
28.20	3.4475
28.22	3.4479
28.24	3.4484
28.25	3.4488
28.27	3.4492
28.29	3.4497
28.30	3.4502
28.32	3.4507
28.33	3.4513
28.35	3.4518
28.37	3.4526
28.39	3.4534
28.40	3.4539
28.42	3.4544
28.44	3.4549
28.45	3.4555
28.47	3.4561
28.49	3.4569
28.50	3.4573
28.52	3.4578
28.54	3.4583
28.56	3.4588
28.57	3.4593
28.59	3.4598
28.61	3.4603
28.63	3.4605
28.64	3.4610
28.65	3.4614
28.67	3.4618
28.69	3.4621
28.70	3.4626
28.72	3.4629
28.74	3.4637
28.75	3.4642
28.77	3.4650
28.79	3.4656
28.80	3.4661
28.82	3.4665
28.84	3.4670
28.85	3.4675
28.88	3.4679
28.90	3.4684
28.91	3.4688
28.92	3.4693
28.94	3.4696
28.95	3.4699
28.97	3.4703
28.99	3.4707
29.00	3.4710
29.02	3.4714
29.03	3.4718
29.05	3.4721
29.07	3.4725
29.08	3.4730
29.10	3.4737
29.12	3.4741
29.14	3.4748
29.15	3.4753
29.17	3.4759
29.18	3.4766
29.20	3.4769
29.22	3.4774
29.24	3.4778
29.25	3.4783
29.27	3.4787
29.29	3.4791
29.31	3.4793
29.32	3.4796
29.34	3.4800
29.35	3.4802
29.37	3.4806
29.39	3.4812
29.40	3.4815
29.42	3.4821
29.44	3.4826
29.45	3.4831
29.47	3.4835
29.49	3.4841
29.50	3.4847
29.52	3.4852
29.54	3.4857
29.55	3.4862
29.57	3.4865
29.59	3.4868
29.60	3.4871
29.62	3.4876
29.64	3.4881
29.66	3.4885
29.67	3.4889
29.69	3.4891
29.70	3.4895
29.72	3.4900
29.73	3.4904
29.75	3.4906
29.77	3.4910
29.79	3.4914
29.80	3.4918
29.82	3.4925
29.83	3.4930
29.85	3.4935
29.88	3.4940
29.89	3.4945
29.90	3.4949
29.92	3.4956
29.93	3.4959
29.95	3.4964
29.97	3.4967
29.99	3.4971
30.00	3.4975
30.02	3.4979
30.04	3.4983
30.05	3.4986
30.07	3.4990
30.09	3.4993
30.10	3.4995
30.12	3.4998
30.14	3.5002
30.15	3.5009
30.17	3.5014
30.19	3.5020
30.20	3.5025
30.22	3.5033
30.23	3.5037
30.24	3.5041
30.27	3.5045
30.28	3.5048
30.30	3.5051
30.32	3.5054
30.34	3.5057
30.35	3.5062
30.37	3.5066
30.39	3.5070
30.40	3.5074
30.42	3.5080
30.43	3.5084
30.45	3.5086
30.47	3.5093
30.48	3.5092
30.50	3.5097
30.52	3.5104
30.54	3.5110
30.55	3.5115
30.57	3.5121
30.59	3.5125
30.60	3.5133
30.62	3.5138
30.64	3.5142
30.65	3.5148
30.67	3.5152
30.68	3.5156
30.70	3.5160
30.72	3.5166
30.74	3.5168
30.75	3.5171
30.77	3.5173
30.78	3.5177
30.80	3.5179
30.82	3.5184
30.84	3.5188
30.85	3.5193
30.87	3.5196
30.89	3.5201
30.90	3.5207
30.92	3.5212
30.94	3.5217
30.95	3.5221
30.97	3.5225
30.99	3.5229
31.00	3.5234
31.02	3.5240
31.04	3.5246
31.05	3.5249
31.07	3.5253
31.09	3.5259
31.10	3.5261
31.12	3.5265
31.13	3.5268
31.15	3.5271
31.17	3.5275
31.18	3.5279
31.20	3.5283
31.22	3.5288
31.24	3.5293
31.25	3.5298
31.27	3.5304
31.28	3.5309
31.30	3.5314
31.32	3.5319
31.34	3.5325
31.35	3.5328
31.37	3.5332
31.38	3.5336
31.40	3.5338
31.42	3.5343
31.43	3.5346
31.45	3.5350
31.47	3.5354
31.48	3.5359
31.50	3.5361
31.52	3.5366
31.53	3.5370
31.55	3.5373
31.57	3.5377
31.58	3.5383
31.60	3.5388
31.62	3.5394
31.64	3.5401
31.65	3.5406
31.67	3.5409
31.69	3.5411
31.70	3.5417
31.72	3.5423
31.73	3.5426
31.74	3.5430
31.76	3.5436
31.78	3.5440
31.80	3.5443
31.82	3.5446
31.83	3.5450
31.85	3.5454
31.86	3.5460
31.88	3.5465
31.90	3.5467
31.92	3.5469
31.93	3.5475
31.95	3.5480
31.96	3.5485
31.98	3.5491
32.00	3.5497
32.02	3.5501
32.03	3.5508
32.05	3.5511
32.07	3.5515
32.08	3.5518
32.10	3.5523
32.12	3.5530
32.13	3.5535
32.15	3.5541
32.17	3.5544
32.18	3.5547
32.20	3.5551
32.21	3.5558
32.23	3.5561
32.24	3.5563
32.27	3.5567
32.28	3.5573
32.30	3.5579
32.32	3.5587
32.33	3.5593
32.35	3.5600
32.36	3.5606
32.38	3.5612
32.40	3.5618
32.41	3.5620
32.43	3.5624
32.45	3.5627
32.46	3.5631
32.47	3.5635
32.49	3.5639
32.51	3.5642
32.53	3.5647
32.55	3.5651
32.56	3.5654
32.58	3.5658
32.60	3.5661
32.61	3.5663
32.63	3.5669
32.64	3.5674
32.66	3.5681
32.68	3.5688
32.70	3.5694
32.72	3.5700
32.73	3.5705
32.74	3.5709
32.77	3.5712
32.78	3.5717
32.80	3.5719
32.82	3.5724
32.83	3.5729
32.84	3.5731
32.86	3.5736
32.88	3.5740
32.90	3.5742
32.91	3.5744
32.93	3.5750
32.95	3.5751
32.97	3.5756
32.98	3.5758
32.99	3.5764
33.01	3.5770
33.03	3.5772
33.05	3.5778
33.06	3.5784
33.08	3.5789
33.10	3.5793
33.12	3.5797
33.13	3.5803
33.14	3.5808
33.16	3.5813
33.18	3.5817
33.20	3.5822
33.21	3.5825
33.23	3.5827
33.24	3.5833
33.26	3.5838
33.28	3.5841
33.30	3.5844
33.31	3.5847
33.33	3.5851
33.34	3.5857
33.36	3.5862
33.38	3.5866
33.40	3.5870
33.41	3.5877
33.43	3.5881
33.44	3.5887
33.46	3.5893
33.48	3.5899
33.49	3.5905
33.51	3.5910
33.52	3.5913
33.55	3.5918
33.56	3.5923
33.58	3.5926
33.59	3.5929
33.61	3.5931
33.63	3.5933
33.65	3.5936
33.66	3.5940
33.68	3.5943
33.70	3.5947
33.71	3.5955
33.73	3.5961
33.74	3.5966
33.77	3.5970
33.78	3.5973
33.80	3.5980
33.81	3.5984
33.83	3.5989
33.84	3.5993
33.86	3.5999
33.88	3.6003
33.89	3.6007
33.91	3.6012
33.93	3.6016
33.95	3.6020
33.96	3.6024
33.98	3.6027
33.99	3.6029
34.01	3.6033
34.03	3.6036
34.04	3.6040
34.06	3.6045
34.08	3.6051
34.09	3.6057
34.11	3.6063
34.12	3.6069
34.14	3.6074
34.16	3.6080
34.18	3.6085
34.19	3.6090
34.21	3.6095
34.23	3.6099
34.24	3.6105
34.26	3.6110
34.28	3.6114
34.30	3.6119
34.31	3.6124
34.33	3.6127
34.34	3.6130
34.36	3.6135
34.38	3.6138
34.40	3.6142
34.41	3.6149
34.43	3.6153
34.44	3.6161
34.46	3.6167
34.48	3.6173
34.49	3.6179
34.51	3.6185
34.52	3.6190
34.54	3.6194
34.55	3.6201
34.57	3.6207
34.59	3.6210
34.61	3.6214
34.63	3.6218
34.64	3.6222
34.66	3.6224
34.67	3.6229
34.69	3.6233
34.71	3.6236
34.72	3.6242
34.74	3.6248
34.76	3.6255
34.77	3.6258
34.79	3.6266
34.81	3.6272
34.83	3.6277
34.84	3.6283
34.86	3.6287
34.88	3.6291
34.89	3.6297
34.91	3.6302
34.92	3.6306
34.94	3.6310
34.96	3.6315
34.98	3.6319
34.99	3.6325
35.01	3.6329
35.02	3.6335
35.04	3.6341
35.06	3.6343
35.08	3.6346
35.09	3.6349
35.10	3.6354
35.13	3.6361
35.14	3.6367
35.16	3.6375
35.18	3.6379
35.19	3.6385
35.21	3.6391
35.22	3.6394
35.24	3.6400
35.25	3.6405
35.27	3.6410
35.29	3.6416
35.30	3.6420
35.32	3.6425
35.34	3.6430
35.35	3.6435
35.37	3.6440
35.39	3.6443
35.41	3.6446
35.42	3.6449
35.44	3.6453
35.45	3.6458
35.47	3.6463
35.49	3.6472
35.50	3.6478
35.52	3.6486
35.54	3.6492
35.56	3.6495
35.58	3.6502
35.59	3.6508
35.60	3.6511
35.62	3.6516
35.64	3.6520
35.65	3.6524
35.67	3.6527
35.69	3.6532
35.70	3.6536
35.73	3.6541
35.74	3.6546
35.75	3.6549
35.77	3.6553
35.79	3.6556
35.81	3.6563
35.83	3.6567
35.84	3.6574
35.85	3.6581
35.87	3.6586
35.89	3.6591
35.90	3.6595
35.93	3.6601
35.94	3.6605
35.95	3.6611
35.98	3.6617
35.99	3.6624
36.00	3.6627
36.02	3.6632
36.04	3.6633
36.06	3.6639
36.07	3.6642
36.09	3.6646
36.10	3.6653
36.12	3.6658
36.14	3.6664
36.15	3.6670
36.17	3.6675
36.19	3.6683
36.20	3.6689
36.22	3.6694
36.23	3.6700
36.25	3.6705
36.27	3.6711
36.29	3.6718
36.30	3.6723
36.33	3.6730
36.34	3.6736
36.35	3.6742
36.37	3.6748
36.39	3.6754
36.40	3.6760
36.43	3.6767
36.44	3.6770
36.45	3.6775
36.47	3.6779
36.49	3.6783
36.50	3.6788
36.52	3.6794
36.54	3.6801
36.55	3.6808
36.58	3.6815
36.59	3.6821
36.60	3.6827
36.62	3.6832
36.64	3.6839
36.65	3.6841
36.67	3.6846
36.69	3.6851
36.70	3.6857
36.72	3.6862
36.74	3.6866
36.75	3.6872
36.77	3.6875
36.79	3.6879
36.80	3.6883
36.82	3.6886
36.84	3.6889
36.86	3.6893
36.87	3.6899
36.88	3.6908
36.90	3.6915
36.92	3.6919
36.94	3.6927
36.96	3.6933
36.98	3.6937
36.99	3.6943
37.00	3.6949
37.02	3.6955
37.04	3.6960
37.05	3.6963
37.07	3.6968
37.09	3.6971
37.10	3.6975
37.12	3.6979
37.14	3.6981
37.15	3.6987
37.17	3.6991
37.18	3.6995
37.20	3.7001
37.22	3.7005
37.24	3.7013
37.25	3.7019
37.27	3.7025
37.29	3.7031
37.31	3.7037
37.32	3.7043
37.34	3.7050
37.35	3.7056
37.37	3.7060
37.38	3.7066
37.40	3.7069
37.42	3.7070
37.43	3.7074
37.45	3.7079
37.47	3.7083
37.49	3.7089
37.50	3.7095
37.52	3.7099
37.53	3.7104
37.55	3.7107
37.57	3.7111
37.59	3.7116
37.60	3.7122
37.62	3.7128
37.64	3.7133
37.65	3.7137
37.67	3.7143
37.69	3.7149
37.70	3.7154
37.72	3.7156
37.73	3.7159
37.75	3.7163
37.77	3.7166
37.78	3.7169
37.80	3.7173
37.82	3.7176
37.83	3.7180
37.85	3.7185
37.87	3.7188
37.88	3.7191
37.90	3.7196
37.92	3.7200
37.94	3.7205
37.95	3.7210
37.97	3.7214
37.99	3.7219
38.00	3.7223
38.02	3.7229
38.03	3.7232
38.05	3.7236
38.08	3.7241
38.09	3.7245
38.11	3.7247
38.12	3.7250
38.13	3.7254
38.15	3.7258
38.17	3.7262
38.18	3.7267
38.20	3.7270
38.22	3.7274
38.23	3.7279
38.25	3.7284
38.27	3.7289
38.28	3.7294
38.30	3.7302
38.32	3.7308
38.33	3.7314
38.35	3.7318
38.37	3.7324
38.39	3.7331
38.40	3.7337
38.43	3.7341
38.44	3.7346
38.46	3.7350
38.47	3.7354
38.48	3.7358
38.50	3.7361
38.51	3.7364
38.53	3.7370
38.55	3.7374
38.57	3.7376
38.58	3.7382
38.60	3.7386
38.62	3.7391
38.63	3.7397
38.65	3.7403
38.67	3.7409
38.68	3.7416
38.70	3.7422
38.72	3.7425
38.73	3.7430
38.75	3.7436
38.77	3.7439
38.78	3.7444
38.80	3.7447
38.82	3.7453
38.83	3.7459
38.85	3.7463
38.87	3.7467
38.88	3.7471
38.90	3.7476
38.92	3.7478
38.93	3.7485
38.95	3.7488
38.97	3.7494
38.98	3.7501
39.00	3.7507
39.02	3.7513
39.03	3.7522
39.05	3.7527
39.07	3.7531
39.08	3.7537
39.10	3.7541
39.12	3.7545
39.13	3.7550
39.15	3.7555
39.17	3.7558
39.18	3.7563
39.20	3.7567
39.21	3.7570
39.23	3.7574
39.25	3.7579
39.26	3.7583
39.28	3.7587
39.30	3.7590
39.32	3.7596
39.33	3.7604
39.35	3.7610
39.37	3.7616
39.38	3.7625
39.40	3.7631
39.42	3.7636
39.43	3.7641
39.45	3.7648
39.46	3.7654
39.48	3.7659
39.50	3.7666
39.52	3.7671
39.53	3.7675
39.55	3.7679
39.57	3.7683
39.58	3.7689
39.59	3.7692
39.61	3.7694
39.63	3.7699
39.65	3.7703
39.66	3.7707
39.68	3.7713
39.70	3.7719
39.72	3.7727
39.73	3.7730
39.75	3.7735
39.77	3.7742
39.78	3.7748
39.80	3.7751
39.82	3.7758
39.83	3.7763
39.85	3.7768
39.87	3.7774
39.88	3.7779
39.90	3.7783
39.92	3.7789
39.94	3.7792
39.95	3.7794
39.97	3.7798
39.98	3.7803
40.00	3.7806
40.02	3.7812
40.03	3.7818
40.05	3.7824
40.06	3.7830
40.08	3.7837
40.09	3.7843
40.12	3.7849
40.13	3.7854
40.15	3.7861
40.17	3.7865
40.18	3.7872
40.20	3.7876
40.21	3.7879
40.23	3.7886
40.25	3.7890
40.27	3.7895
40.29	3.7900
40.30	3.7905
40.31	3.7910
40.33	3.7915
40.34	3.7920
40.36	3.7924
40.38	3.7929
40.40	3.7937
40.42	3.7943
40.43	3.7949
40.45	3.7954
40.47	3.7960
40.48	3.7967
40.50	3.7970
40.52	3.7976
40.53	3.7980
40.55	3.7984
40.57	3.7990
40.58	3.7995
40.59	3.8000
40.62	3.8004
40.63	3.8006
40.65	3.8012
40.66	3.8016
40.68	3.8020
40.70	3.8024
40.71	3.8030
40.73	3.8037
40.75	3.8042
40.77	3.8049
40.78	3.8055
40.80	3.8061
40.81	3.8065
40.83	3.8072
40.85	3.8077
40.86	3.8084
40.88	3.8087
40.90	3.8092
40.92	3.8100
40.93	3.8104
40.95	3.8106
40.97	3.8113
40.98	3.8117
40.99	3.8122
41.01	3.8128
41.03	3.8133
41.05	3.8138
41.07	3.8144
41.08	3.8153
41.09	3.8157
41.11	3.8165
41.13	3.8170
41.15	3.8175
41.16	3.8180
41.18	3.8186
41.20	3.8190
41.21	3.8199
41.23	3.8204
41.25	3.8208
41.26	3.8213
41.28	3.8217
41.30	3.8222
41.31	3.8227
41.33	3.8231
41.34	3.8234
41.36	3.8237
41.38	3.8243
41.40	3.8250
41.41	3.8255
41.43	3.8262
41.45	3.8268
41.46	3.8273
41.48	3.8279
41.49	3.8286
41.51	3.8291
41.53	3.8296
41.55	3.8302
41.57	3.8308
41.58	3.8313
41.59	3.8317
41.61	3.8319
41.63	3.8323
41.65	3.8328
41.66	3.8331
41.68	3.8335
41.70	3.8341
41.71	3.8345
41.73	3.8348
41.74	3.8350
41.76	3.8355
41.78	3.8360
41.80	3.8363
41.81	3.8372
41.83	3.8376
41.85	3.8384
41.87	3.8391
41.88	3.8395
41.89	3.8400
41.91	3.8405
41.93	3.8410
41.94	3.8414
41.96	3.8419
41.98	3.8424
41.99	3.8427
42.01	3.8432
42.02	3.8436
42.04	3.8439
42.05	3.8444
42.08	3.8450
42.09	3.8458
42.11	3.8464
42.13	3.8468
42.15	3.8476
42.16	3.8482
42.18	3.8490
42.20	3.8495
42.21	3.8500
42.23	3.8504
42.24	3.8507
42.26	3.8511
42.28	3.8515
42.30	3.8517
42.31	3.8523
42.33	3.8529
42.34	3.8535
42.36	3.8539
42.38	3.8544
42.39	3.8549
42.41	3.8554
42.43	3.8559
42.44	3.8563
42.46	3.8570
42.48	3.8576
42.49	3.8580
42.51	3.8588
42.52	3.8595
42.54	3.8601
42.56	3.8606
42.58	3.8612
42.59	3.8618
42.61	3.8623
42.63	3.8626
42.65	3.8633
42.66	3.8638
42.67	3.8642
42.69	3.8647
42.71	3.8653
42.73	3.8656
42.74	3.8659
42.76	3.8662
42.77	3.8666
42.79	3.8670
42.81	3.8676
42.83	3.8683
42.84	3.8691
42.86	3.8699
42.88	3.8706
42.90	3.8712
42.91	3.8716
42.93	3.8721
42.94	3.8726
42.96	3.8732
42.98	3.8736
42.99	3.8741
43.01	3.8746
43.02	3.8751
43.04	3.8756
43.06	3.8762
43.08	3.8764
43.09	3.8768
43.11	3.8772
43.13	3.8776
43.14	3.8782
43.16	3.8787
43.18	3.8792
43.19	3.8800
43.21	3.8808
43.23	3.8815
43.24	3.8819
43.26	3.8825
43.28	3.8829
43.29	3.8835
43.30	3.8838
43.32	3.8842
43.34	3.8847
43.36	3.8851
43.38	3.8854
43.39	3.8857
43.41	3.8861
43.43	3.8866
43.44	3.8870
43.46	3.8875
43.47	3.8879
43.49	3.8885
43.51	3.8890
43.52	3.8900
43.54	3.8907
43.55	3.8916
43.57	3.8922
43.59	3.8926
43.60	3.8931
43.62	3.8936
43.64	3.8941
43.66	3.8945
43.68	3.8950
43.70	3.8957
43.71	3.8960
43.73	3.8966
43.74	3.8970
43.75	3.8977
43.77	3.8980
43.79	3.8986
43.81	3.8989
43.83	3.8992
43.84	3.9000
43.86	3.9007
43.88	3.9015
43.89	3.9021
43.91	3.9026
43.93	3.9032
43.94	3.9037
43.95	3.9042
43.98	3.9047
43.99	3.9052
44.01	3.9059
44.02	3.9062
44.04	3.9066
44.05	3.9070
44.07	3.9073
44.08	3.9077
44.10	3.9081
44.13	3.9085
44.14	3.9089
44.15	3.9094
44.17	3.9100
44.19	3.9105
44.21	3.9113
44.22	3.9118
44.23	3.9124
44.25	3.9130
44.27	3.9136
44.29	3.9141
44.31	3.9146
44.33	3.9151
44.34	3.9157
44.35	3.9161
44.37	3.9166
44.39	3.9172
44.41	3.9175
44.43	3.9178
44.44	3.9183
44.45	3.9186
44.47	3.9190
44.49	3.9193
44.50	3.9197
44.52	3.9202
44.54	3.9210
44.55	3.9217
44.57	3.9222
44.58	3.9230
44.60	3.9237
44.62	3.9241
44.64	3.9246
44.65	3.9251
44.67	3.9256
44.69	3.9259
44.71	3.9264
44.72	3.9269
44.74	3.9274
44.75	3.9277
44.77	3.9282
44.79	3.9287
44.80	3.9291
44.81	3.9295
44.83	3.9298
44.85	3.9303
44.87	3.9307
44.89	3.9313
44.90	3.9318
44.93	3.9324
44.94	3.9329
44.95	3.9335
44.97	3.9342
44.99	3.9346
45.00	3.9351
45.02	3.9355
45.04	3.9361
45.05	3.9366
45.07	3.9370
45.09	3.9373
45.10	3.9378
45.12	3.9380
45.13	3.9384
45.15	3.9387
45.17	3.9392
45.19	3.9397
45.20	3.9402
45.23	3.9410
45.24	3.9416
45.26	3.9422
45.27	3.9426
45.29	3.9433
45.30	3.9438
45.32	3.9444
45.34	3.9449
45.35	3.9454
45.37	3.9459
45.38	3.9465
45.40	3.9470
45.42	3.9473
45.44	3.9477
45.45	3.9483
45.47	3.9487
45.49	3.9493
45.50	3.9499
45.52	3.9506
45.54	3.9510
45.55	3.9517
45.57	3.9523
45.59	3.9530
45.60	3.9539
45.62	3.9545
45.64	3.9552
45.65	3.9558
45.67	3.9563
45.69	3.9570
45.70	3.9574
45.72	3.9577
45.74	3.9582
45.76	3.9588
45.77	3.9593
45.79	3.9597
45.80	3.9603
45.82	3.9610
45.83	3.9616
45.85	3.9621
45.87	3.9625
45.89	3.9630
45.90	3.9636
45.92	3.9644
45.94	3.9651
45.95	3.9657
45.97	3.9662
45.99	3.9669
46.00	3.9674
46.02	3.9679
46.04	3.9684
46.05	3.9689
46.07	3.9696
46.09	3.9701
46.10	3.9709
46.12	3.9712
46.14	3.9718
46.15	3.9723
46.17	3.9727
46.18	3.9731
46.20	3.9736
46.22	3.9741
46.24	3.9747
46.25	3.9751
46.27	3.9758
46.29	3.9765
46.30	3.9772
46.32	3.9778
46.34	3.9784
46.35	3.9789
46.38	3.9795
46.39	3.9799
46.40	3.9806
46.43	3.9809
46.44	3.9814
46.45	3.9818
46.46	3.9823
46.49	3.9828
46.50	3.9832
46.52	3.9836
46.54	3.9841
46.55	3.9847
46.58	3.9850
46.59	3.9855
46.60	3.9861
46.62	3.9867
46.63	3.9875
46.65	3.9881
46.67	3.9889
46.68	3.9894
46.70	3.9901
46.72	3.9904
46.73	3.9908
46.74	3.9915
46.76	3.9919
46.78	3.9923
46.81	3.9929
46.83	3.9933
46.84	3.9937
46.85	3.9941
46.87	3.9946
46.89	3.9949
46.90	3.9954
46.92	3.9957
46.93	3.9962
46.95	3.9969
46.97	3.9975
46.99	3.9981
47.01	3.9988
47.02	3.9994
47.04	4.0001
47.05	4.0007
47.07	4.0010
47.09	4.0015
47.10	4.0020
47.12	4.0023
47.14	4.0028
47.15	4.0030
47.17	4.0033
47.18	4.0040
47.20	4.0042
47.22	4.0047
47.24	4.0051
47.25	4.0055
47.27	4.0060
47.29	4.0066
47.30	4.0073
47.32	4.0081
47.33	4.0088
47.35	4.0094
47.37	4.0099
47.38	4.0105
47.40	4.0111
47.42	4.0117
47.44	4.0122
47.45	4.0125
47.47	4.0132
47.49	4.0136
47.50	4.0140
47.52	4.0145
47.54	4.0152
47.55	4.0156
47.57	4.0162
47.58	4.0165
47.60	4.0169
47.62	4.0174
47.63	4.0179
47.65	4.0184
47.68	4.0191
47.69	4.0197
47.70	4.0205
47.72	4.0209
47.74	4.0216
47.75	4.0221
47.77	4.0227
47.79	4.0233
47.80	4.0238
47.82	4.0245
47.83	4.0249
47.85	4.0255
47.87	4.0260
47.89	4.0265
47.90	4.0270
47.92	4.0274
47.94	4.0281
47.95	4.0286
47.98	4.0291
47.98	4.0299
48.00	4.0307
48.02	4.0313
48.03	4.0319
48.05	4.0326
48.07	4.0331
48.08	4.0336
48.10	4.0340
48.12	4.0346
48.14	4.0351
48.15	4.0358
48.17	4.0362
48.19	4.0367
48.20	4.0370
48.22	4.0376
48.23	4.0377
48.25	4.0381
48.27	4.0387
48.28	4.0393
48.30	4.0399
48.32	4.0407
48.33	4.0415
48.35	4.0423
48.37	4.0429
48.39	4.0436
48.40	4.0441
48.42	4.0446
48.43	4.0452
48.45	4.0455
48.46	4.0461
48.48	4.0466
48.50	4.0470
48.51	4.0475
48.53	4.0481
48.55	4.0484
48.57	4.0488
48.58	4.0493
48.60	4.0496
48.62	4.0498
48.63	4.0503
48.65	4.0507
48.67	4.0512
48.68	4.0521
48.70	4.0528
48.72	4.0533
48.73	4.0538
48.75	4.0542
48.76	4.0546
48.78	4.0552
48.80	4.0556
48.81	4.0560
48.83	4.0565
48.85	4.0570
48.87	4.0573
48.89	4.0577
48.90	4.0581
48.92	4.0586
48.93	4.0591
48.95	4.0593
48.96	4.0598
48.98	4.0604
49.00	4.0609
49.01	4.0615
49.03	4.0621
49.05	4.0625
49.06	4.0631
49.08	4.0636
49.09	4.0639
49.11	4.0647
49.13	4.0650
49.15	4.0654
49.17	4.0659
49.18	4.0664
49.20	4.0669
49.22	4.0672
49.23	4.0674
49.25	4.0679
49.26	4.0682
49.28	4.0688
49.30	4.0690
49.31	4.0694
49.33	4.0700
49.34	4.0707
49.36	4.0714
49.38	4.0721
49.40	4.0728
49.41	4.0731
49.43	4.0738
49.45	4.0743
49.47	4.0749
49.48	4.0756
49.50	4.0761
49.52	4.0766
49.53	4.0770
49.55	4.0776
49.56	4.0780
49.58	4.0784
49.59	4.0788
49.61	4.0794
49.63	4.0799
49.65	4.0803
49.66	4.0810
49.68	4.0816
49.70	4.0823
49.71	4.0831
49.73	4.0837
49.75	4.0843
49.76	4.0849
49.78	4.0855
49.80	4.0860
49.82	4.0865
49.83	4.0871
49.85	4.0876
49.86	4.0880
49.88	4.0886
49.90	4.0891
49.91	4.0894
49.93	4.0898
49.95	4.0903
49.96	4.0907
49.98	4.0913
49.99	4.0918
50.01	4.0926
50.03	4.0933
50.05	4.0938
50.06	4.0944
50.08	4.0950
50.10	4.0955
50.12	4.0963
50.13	4.0969
50.15	4.0975
50.16	4.0982
50.18	4.0989
50.20	4.0994
50.21	4.0998
50.23	4.1003
50.25	4.1005
50.27	4.1010
50.27	4.1016
50.30	4.1019
50.32	4.1024
50.33	4.1030
50.34	4.1036
50.36	4.1042
50.38	4.1050
50.40	4.1057
50.41	4.1064
50.43	4.1071
50.45	4.1074
50.47	4.1080
50.48	4.1087
50.50	4.1094
50.52	4.1102
50.53	4.1106
50.55	4.1111
50.56	4.1116
50.58	4.1121
50.59	4.1127
50.61	4.1131
50.63	4.1136
50.65	4.1142
50.67	4.1147
50.68	4.1154
50.70	4.1160
50.71	4.1165
50.73	4.1171
50.75	4.1177
50.77	4.1186
50.78	4.1188
50.80	4.1194
50.82	4.1200
50.83	4.1206
50.84	4.1213
50.86	4.1217
50.88	4.1222
50.90	4.1227
50.91	4.1231
50.93	4.1236
50.95	4.1239
50.96	4.1243
50.98	4.1248
51.00	4.1252
51.01	4.1258
51.03	4.1265
51.05	4.1269
51.06	4.1275
51.08	4.1281
51.09	4.1287
51.11	4.1292
51.13	4.1296
51.15	4.1299
51.16	4.1306
51.18	4.1312
51.20	4.1316
51.21	4.1320
51.23	4.1324
51.25	4.1330
51.26	4.1335
51.28	4.1341
51.29	4.1344
51.31	4.1349
51.33	4.1353
51.34	4.1357
51.36	4.1361
51.38	4.1365
51.40	4.1373
51.41	4.1379
51.43	4.1384
51.44	4.1391
51.46	4.1396
51.48	4.1404
51.49	4.1409
51.52	4.1413
51.53	4.1417
51.55	4.1421
51.56	4.1426
51.58	4.1431
51.59	4.1435
51.61	4.1441
51.63	4.1446
51.64	4.1450
51.66	4.1456
51.68	4.1460
51.70	4.1466
51.71	4.1471
51.73	4.1475
51.75	4.1482
51.76	4.1489
51.78	4.1496
51.79	4.1501
51.81	4.1507
51.83	4.1515
51.84	4.1520
51.86	4.1525
51.88	4.1530
51.90	4.1534
51.91	4.1537
51.93	4.1541
51.95	4.1546
51.96	4.1550
51.98	4.1553
52.00	4.1558
52.01	4.1564
52.02	4.1570
52.04	4.1573
52.06	4.1578
52.08	4.1583
52.09	4.1591
52.11	4.1598
52.13	4.1604
52.15	4.1613
52.16	4.1619
52.18	4.1625
52.19	4.1631
52.21	4.1636
52.23	4.1639
52.25	4.1643
52.26	4.1649
52.28	4.1655
52.30	4.1660
52.31	4.1665
52.33	4.1670
52.34	4.1676
52.36	4.1681
52.38	4.1685
52.39	4.1689
52.42	4.1694
52.43	4.1700
52.45	4.1707
52.46	4.1713
52.48	4.1720
52.50	4.1725
52.51	4.1731
52.53	4.1737
52.55	4.1742
52.56	4.1748
52.58	4.1751
52.59	4.1756
52.61	4.1761
52.63	4.1765
52.65	4.1770
52.66	4.1777
52.68	4.1782
52.70	4.1787
52.71	4.1791
52.73	4.1794
52.74	4.1800
52.76	4.1808
52.78	4.1816
52.80	4.1823
52.81	4.1831
52.83	4.1837
52.84	4.1843
52.86	4.1847
52.87	4.1853
52.89	4.1858
52.91	4.1863
52.93	4.1867
52.94	4.1871
52.96	4.1879
52.98	4.1883
52.99	4.1886
53.01	4.1891
53.02	4.1895
53.05	4.1897
53.06	4.1900
53.08	4.1904
53.09	4.1909
53.11	4.1916
53.13	4.1922
53.15	4.1928
53.16	4.1935
53.18	4.1940
53.19	4.1945
53.20	4.1952
53.23	4.1955
53.25	4.1959
53.26	4.1964
53.28	4.1969
53.30	4.1974
53.31	4.1977
53.33	4.1981
53.34	4.1987
53.36	4.1990
53.38	4.1994
53.39	4.1997
53.41	4.2002
53.43	4.2006
53.44	4.2013
53.46	4.2021
53.48	4.2026
53.49	4.2031
53.51	4.2037
53.52	4.2040
53.54	4.2047
53.56	4.2052
53.58	4.2056
53.59	4.2061
53.61	4.2068
53.63	4.2071
53.64	4.2075
53.66	4.2078
53.68	4.2083
53.69	4.2087
53.71	4.2092
53.73	4.2095
53.74	4.2101
53.75	4.2107
53.77	4.2111
53.79	4.2117
53.81	4.2124
53.82	4.2130
53.84	4.2136
53.85	4.2143
53.88	4.2147
53.89	4.2153
53.90	4.2158
53.92	4.2162
53.94	4.2167
53.95	4.2172
53.97	4.2178
53.98	4.2181
54.00	4.2186
54.02	4.2191
54.04	4.2194
54.06	4.2204
54.08	4.2204
54.09	4.2211
54.10	4.2221
54.13	4.2221
54.14	4.2228
54.16	4.2236
54.18	4.2242
54.19	4.2253
54.21	4.2254
54.23	4.2257
54.25	4.2262
54.26	4.2269
54.27	4.2277
54.29	4.2286
54.31	4.2294
54.33	4.2292
54.34	4.2294
54.35	4.2300
54.38	4.2308
54.40	4.2307
54.41	4.2316
54.43	4.2316
54.44	4.2324
54.46	4.2328
54.48	4.2339
54.49	4.2347
54.50	4.2351
54.52	4.2355
54.54	4.2362
54.55	4.2366
54.57	4.2373
54.59	4.2377
54.61	4.2383
54.63	4.2387
54.64	4.2392
54.65	4.2399
54.68	4.2402
54.69	4.2407
54.71	4.2410
54.73	4.2415
54.74	4.2419
54.75	4.2428
54.77	4.2432
54.79	4.2437
54.80	4.2444
54.83	4.2449
54.84	4.2454
54.86	4.2459
54.88	4.2463
54.89	4.2470
54.91	4.2473
54.92	4.2473
54.94	4.2479
54.95	4.2481
54.97	4.2485
54.99	4.2491
55.00	4.2495
55.02	4.2501
55.03	4.2506
55.05	4.2510
55.08	4.2513
55.09	4.2517
55.10	4.2521
55.12	4.2526
55.14	4.2531
55.15	4.2539
55.17	4.2545
55.19	4.2551
55.20	4.2556
55.22	4.2562
55.24	4.2566
55.25	4.2572
55.27	4.2576
55.29	4.2581
55.31	4.2586
55.33	4.2590
55.34	4.2598
55.35	4.2601
55.38	4.2605
55.39	4.2609
55.40	4.2614
55.43	4.2616
55.44	4.2620
55.45	4.2628
55.46	4.2635
55.49	4.2643
55.51	4.2650
55.53	4.2656
55.54	4.2660
55.55	4.2664
55.56	4.2673
55.58	4.2679
55.60	4.2685
55.63	4.2690
55.63	4.2693
55.65	4.2699
55.67	4.2703
55.68	4.2708
55.70	4.2712
55.73	4.2716
55.74	4.2720
55.75	4.2725
55.77	4.2726
55.79	4.2732
55.81	4.2740
55.82	4.2748
55.84	4.2755
55.85	4.2759
55.87	4.2766
55.89	4.2773
55.91	4.2778
55.92	4.2783
55.94	4.2789
55.95	4.2796
55.97	4.2800
55.99	4.2804
56.01	4.2808
56.02	4.2813
56.04	4.2817
56.06	4.2821
56.08	4.2825
56.09	4.2832
56.11	4.2835
56.13	4.2840
56.13	4.2848
56.15	4.2856
56.17	4.2862
56.19	4.2868
56.21	4.2875
56.22	4.2879
56.24	4.2885
56.25	4.2891
56.27	4.2895
56.29	4.2902
56.30	4.2910
56.32	4.2917
56.34	4.2922
56.36	4.2927
56.37	4.2931
56.39	4.2937
56.41	4.2941
56.43	4.2945
56.44	4.2950
56.45	4.2955
56.47	4.2962
56.49	4.2969
56.50	4.2977
56.52	4.2982
56.54	4.2989
56.55	4.2995
56.58	4.2999
56.59	4.3005
56.61	4.3012
56.62	4.3017
56.64	4.3023
56.66	4.3027
56.68	4.3035
56.70	4.3038
56.71	4.3041
56.73	4.3048
56.74	4.3052
56.76	4.3057
56.77	4.3059
56.79	4.3062
56.80	4.3067
56.82	4.3073
56.83	4.3078
56.85	4.3085
56.88	4.3092
56.89	4.3099
56.90	4.3107
56.92	4.3114
56.94	4.3120
56.95	4.3126
56.97	4.3129
56.99	4.3132
57.01	4.3138
57.02	4.3141
57.04	4.3145
57.05	4.3148
57.07	4.3152
57.09	4.3155
57.10	4.3160
57.12	4.3163
57.14	4.3171
57.15	4.3177
57.18	4.3183
57.19	4.3192
57.20	4.3200
57.22	4.3205
57.24	4.3210
57.25	4.3217
57.27	4.3221
57.29	4.3226
57.31	4.3232
57.32	4.3238
57.34	4.3242
57.35	4.3246
57.37	4.3250
57.38	4.3254
57.40	4.3259
57.42	4.3261
57.43	4.3266
57.45	4.3273
57.47	4.3276
57.49	4.3282
57.50	4.3290
57.52	4.3296
57.54	4.3304
57.56	4.3313
57.57	4.3317
57.58	4.3322
57.60	4.3328
57.62	4.3332
57.63	4.3337
57.65	4.3344
57.67	4.3350
57.69	4.3355
57.71	4.3360
57.73	4.3366
57.74	4.3370
57.75	4.3374
57.77	4.3378
57.79	4.3384
57.81	4.3390
57.82	4.3397
57.83	4.3403
57.85	4.3411
57.87	4.3416
57.88	4.3419
57.90	4.3425
57.92	4.3431
57.93	4.3435
57.95	4.3441
57.97	4.3447
57.99	4.3453
58.00	4.3457
58.02	4.3462
58.04	4.3467
58.05	4.3473
58.08	4.3475
58.09	4.3480
58.10	4.3483
58.12	4.3486
58.14	4.3489
58.15	4.3496
58.17	4.3503
58.19	4.3510
58.21	4.3517
58.23	4.3521
58.24	4.3528
58.25	4.3532
58.27	4.3537
58.28	4.3541
58.30	4.3547
58.32	4.3551
58.33	4.3558
58.35	4.3561
58.37	4.3565
58.38	4.3568
58.40	4.3571
58.42	4.3574
58.44	4.3579
58.45	4.3585
58.47	4.3590
58.49	4.3594
58.50	4.3601
58.52	4.3608
58.53	4.3616
58.55	4.3621
58.57	4.3627
58.59	4.3632
58.60	4.3637
58.62	4.3642
58.64	4.3646
58.65	4.3653
58.67	4.3659
58.69	4.3665
58.70	4.3670
58.72	4.3675
58.74	4.3680
58.75	4.3682
58.77	4.3689
58.78	4.3695
58.80	4.3699
58.82	4.3705
58.84	4.3712
58.85	4.3718
58.87	4.3726
58.89	4.3733
58.90	4.3738
58.92	4.3746
58.94	4.3752
58.95	4.3760
58.97	4.3766
58.99	4.3771
59.00	4.3777
59.02	4.3782
59.03	4.3788
59.05	4.3794
59.07	4.3797
59.08	4.3803
59.10	4.3806
59.12	4.3812
59.14	4.3817
59.15	4.3822
59.17	4.3828
59.18	4.3836
59.20	4.3842
59.22	4.3848
59.23	4.3855
59.25	4.3860
59.26	4.3865
59.28	4.3869
59.30	4.3876
59.32	4.3881
59.34	4.3889
59.35	4.3890
59.37	4.3898
59.39	4.3900
59.40	4.3905
59.42	4.3910
59.44	4.3913
59.45	4.3915
59.48	4.3919
59.49	4.3923
59.50	4.3928
59.52	4.3934
59.53	4.3940
59.55	4.3944
59.57	4.3951
59.58	4.3956
59.60	4.3962
59.62	4.3966
59.64	4.3972
59.65	4.3977
59.67	4.3981
59.69	4.3987
59.70	4.3989
59.72	4.3992
59.73	4.3994
59.75	4.3996
59.77	4.4001
59.78	4.4004
59.80	4.4007
59.82	4.4010
59.84	4.4016
59.85	4.4021
59.87	4.4026
59.88	4.4034
59.90	4.4039
59.92	4.4046
59.93	4.4052
59.95	4.4056
59.96	4.4062
59.98	4.4067
60.00	4.4070
60.02	4.4074
60.03	4.4080
60.05	4.4083
60.07	4.4089
60.08	4.4092
60.10	4.4095
60.12	4.4099
60.13	4.4104
60.15	4.4108
60.16	4.4113
60.18	4.4119
60.20	4.4126
60.22	4.4132
60.23	4.4139
60.25	4.4144
60.27	4.4149
60.28	4.4154
60.30	4.4160
60.32	4.4167
60.33	4.4172
60.35	4.4176
60.37	4.4184
60.38	4.4187
60.40	4.4195
60.41	4.4201
60.43	4.4205
60.45	4.4210
60.47	4.4214
60.48	4.4220
60.50	4.4226
60.52	4.4235
60.53	4.4243
60.55	4.4250
60.57	4.4258
60.58	4.4265
60.60	4.4271
60.61	4.4276
60.63	4.4282
60.65	4.4288
60.67	4.4294
60.68	4.4300
60.70	4.4305
60.71	4.4310
60.73	4.4316
60.75	4.4321
60.77	4.4329
60.79	4.4335
60.80	4.4338
60.81	4.4344
60.83	4.4349
60.84	4.4357
60.86	4.4363
60.88	4.4368
60.90	4.4371
60.92	4.4377
60.93	4.4382
60.95	4.4386
60.97	4.4393
60.98	4.4399
61.00	4.4403
61.02	4.4409
61.03	4.4414
61.05	4.4420
61.07	4.4424
61.08	4.4427
61.10	4.4430
61.12	4.4436
61.13	4.4440
61.15	4.4448
61.17	4.4453
61.19	4.4459
61.20	4.4463
61.21	4.4470
61.23	4.4475
61.25	4.4480
61.27	4.4486
61.28	4.4492
61.30	4.4499
61.32	4.4504
61.33	4.4508
61.35	4.4510
61.37	4.4516
61.38	4.4520
61.40	4.4522
61.42	4.4528
61.43	4.4534
61.45	4.4535
61.46	4.4540
61.48	4.4546
61.50	4.4552
61.51	4.4557
61.53	4.4564
61.55	4.4569
61.57	4.4574
61.58	4.4581
61.60	4.4589
61.61	4.4594
61.63	4.4599
61.65	4.4604
61.66	4.4609
61.68	4.4614
61.70	4.4619
61.71	4.4622
61.73	4.4626
61.75	4.4631
61.77	4.4634
61.78	4.4638
61.80	4.4641
61.81	4.4645
61.83	4.4652
61.84	4.4659
61.87	4.4665
61.88	4.4674
61.90	4.4678
61.92	4.4684
61.93	4.4689
61.95	4.4695
61.96	4.4701
61.98	4.4707
62.00	4.4714
62.01	4.4721
62.03	4.4725
62.05	4.4730
62.07	4.4735
62.08	4.4739
62.10	4.4744
62.12	4.4749
62.13	4.4753
62.14	4.4757
62.16	4.4764
62.18	4.4772
62.19	4.4779
62.21	4.4787
62.23	4.4794
62.25	4.4800
62.26	4.4807
62.28	4.4812
62.30	4.4817
62.31	4.4824
62.33	4.4827
62.34	4.4834
62.36	4.4839
62.38	4.4845
62.40	4.4849
62.42	4.4853
62.43	4.4859
62.45	4.4864
62.46	4.4869
62.48	4.4875
62.49	4.4879
62.51	4.4887
62.53	4.4892
62.54	4.4900
62.56	4.4907
62.58	4.4912
62.59	4.4919
62.61	4.4925
62.63	4.4932
62.64	4.4938
62.66	4.4945
62.68	4.4949
62.69	4.4953
62.71	4.4960
62.73	4.4961
62.75	4.4967
62.76	4.4971
62.78	4.4976
62.80	4.4979
62.81	4.4987
62.83	4.4991
62.84	4.4997
62.86	4.5005
62.88	4.5012
62.90	4.5018
62.91	4.5022
62.93	4.5029
62.94	4.5036
62.96	4.5042
62.98	4.5050
62.99	4.5052
63.01	4.5061
63.03	4.5066
63.05	4.5071
63.06	4.5073
63.08	4.5079
63.09	4.5082
63.11	4.5089
63.13	4.5094
63.15	4.5098
63.16	4.5104
63.18	4.5112
63.19	4.5121
63.21	4.5127
63.23	4.5135
63.25	4.5141
63.26	4.5148
63.28	4.5154
63.30	4.5158
63.31	4.5162
63.33	4.5168
63.35	4.5173
63.36	4.5178
63.38	4.5183
63.39	4.5189
63.41	4.5193
63.43	4.5197
63.44	4.5201
63.46	4.5203
63.48	4.5209
63.50	4.5216
63.51	4.5223
63.53	4.5228
63.54	4.5236
63.56	4.5243
63.58	4.5249
63.59	4.5254
63.61	4.5259
63.63	4.5265
63.65	4.5271
63.66	4.5278
63.68	4.5282
63.70	4.5286
63.72	4.5291
63.73	4.5297
63.75	4.5301
63.76	4.5307
63.78	4.5310
63.80	4.5315
63.81	4.5320
63.83	4.5326
63.84	4.5331
63.86	4.5338
63.88	4.5345
63.89	4.5350
63.91	4.5358
63.93	4.5364
63.95	4.5369
63.97	4.5377
63.98	4.5383
64.00	4.5389
64.02	4.5396
64.03	4.5399
64.05	4.5405
64.06	4.5408
64.08	4.5412
64.09	4.5417
64.11	4.5423
64.13	4.5426
64.14	4.5432
64.16	4.5436
64.18	4.5442
64.20	4.5449
64.22	4.5456
64.23	4.5462
64.25	4.5469
64.26	4.5473
64.28	4.5477
64.30	4.5484
64.31	4.5489
64.33	4.5494
64.35	4.5501
64.36	4.5507
64.38	4.5513
64.39	4.5516
64.41	4.5520
64.43	4.5524
64.45	4.5527
64.46	4.5532
64.48	4.5536
64.50	4.5541
64.52	4.5549
64.53	4.5553
64.55	4.5559
64.56	4.5564
64.58	4.5570
64.59	4.5575
64.61	4.5580
64.63	4.5586
64.64	4.5592
64.66	4.5600
64.68	4.5604
64.70	4.5610
64.72	4.5613
64.73	4.5617
64.75	4.5624
64.76	4.5631
64.78	4.5635
64.80	4.5638
64.81	4.5644
64.83	4.5648
64.84	4.5654
64.86	4.5661
64.88	4.5664
64.89	4.5670
64.91	4.5679
64.92	4.5684
64.95	4.5692
64.96	4.5698
64.98	4.5703
65.00	4.5709
65.02	4.5715
65.03	4.5718
65.05	4.5724
65.06	4.5730
65.08	4.5735
65.09	4.5740
65.11	4.5746
65.13	4.5750
65.14	4.5757
65.16	4.5762
65.17	4.5768
65.20	4.5776
65.21	4.5782
65.23	4.5789
65.25	4.5796
65.26	4.5802
65.28	4.5807
65.30	4.5812
65.31	4.5818
65.33	4.5824
65.34	4.5831
65.36	4.5837
65.38	4.5841
65.39	4.5846
65.41	4.5851
65.43	4.5855
65.45	4.5860
65.46	4.5866
65.48	4.5871
65.50	4.5875
65.51	4.5880
65.53	4.5889
65.55	4.5899
65.57	4.5904
65.58	4.5910
65.59	4.5915
65.61	4.5921
65.63	4.5928
65.64	4.5935
65.66	4.5940
65.68	4.5946
65.69	4.5951
65.70	4.5957
65.72	4.5958
65.74	4.5964
65.76	4.5969
65.78	4.5973
65.80	4.5977
65.82	4.5982
65.83	4.5987
65.84	4.5991
65.86	4.5998
65.88	4.6003
65.89	4.6011
65.91	4.6017
65.92	4.6022
65.94	4.6029
65.96	4.6035
65.98	4.6038
66.00	4.6043
66.01	4.6046
66.03	4.6049
66.04	4.6056
66.06	4.6061
66.08	4.6065
66.09	4.6068
66.11	4.6072
66.13	4.6080
66.14	4.6084
66.16	4.6089
66.17	4.6096
66.19	4.6102
66.21	4.6109
66.22	4.6113
66.25	4.6119
66.26	4.6128
66.28	4.6129
66.30	4.6136
66.31	4.6140
66.33	4.6146
66.34	4.6151
66.37	4.6157
66.38	4.6161
66.39	4.6167
66.41	4.6170
66.43	4.6175
66.45	4.6180
66.46	4.6184
66.48	4.6188
66.50	4.6193
66.51	4.6200
66.53	4.6206
66.55	4.6211
66.56	4.6217
66.58	4.6224
66.59	4.6232
66.61	4.6238
66.63	4.6243
66.64	4.6249
66.66	4.6254
66.68	4.6258
66.70	4.6261
66.71	4.6265
66.73	4.6271
66.75	4.6274
66.76	4.6277
66.78	4.6283
66.79	4.6286
66.81	4.6290
66.83	4.6296
66.84	4.6302
66.86	4.6308
66.88	4.6313
66.89	4.6320
66.91	4.6326
66.93	4.6331
66.94	4.6337
66.96	4.6343
66.97	4.6347
66.99	4.6353
67.01	4.6360
67.03	4.6363
67.05	4.6368
67.07	4.6373
67.08	4.6375
67.09	4.6379
67.12	4.6384
67.13	4.6388
67.15	4.6393
67.16	4.6400
67.17	4.6407
67.20	4.6414
67.21	4.6422
67.22	4.6427
67.24	4.6434
67.26	4.6439
67.28	4.6444
67.30	4.6449
67.31	4.6457
67.33	4.6461
67.34	4.6468
67.36	4.6475
67.37	4.6479
67.39	4.6483
67.41	4.6488
67.42	4.6495
67.45	4.6499
67.46	4.6505
67.47	4.6509
67.49	4.6515
67.51	4.6521
67.53	4.6527
67.54	4.6532
67.56	4.6540
67.58	4.6547
67.59	4.6554
67.61	4.6562
67.63	4.6568
67.64	4.6575
67.66	4.6578
67.67	4.6584
67.69	4.6590
67.71	4.6594
67.72	4.6599
67.74	4.6603
67.76	4.6607
67.78	4.6612
67.79	4.6618
67.81	4.6623
67.83	4.6630
67.84	4.6635
67.86	4.6644
67.88	4.6651
67.89	4.6658
67.91	4.6664
67.93	4.6671
67.95	4.6678
67.96	4.6686
67.97	4.6692
67.99	4.6697
68.01	4.6703
68.03	4.6708
68.04	4.6714
68.06	4.6716
68.08	4.6722
68.09	4.6727
68.11	4.6734
68.13	4.6737
68.14	4.6743
68.16	4.6751
68.18	4.6757
68.20	4.6763
68.21	4.6772
68.23	4.6777
68.25	4.6782
68.26	4.6787
68.28	4.6793
68.30	4.6799
68.31	4.6804
68.33	4.6810
68.34	4.6817
68.36	4.6823
68.38	4.6829
68.39	4.6835
68.41	4.6839
68.42	4.6844
68.45	4.6848
68.46	4.6854
68.48	4.6856
68.49	4.6865
68.51	4.6871
68.51	4.6878
68.53	4.6883
68.56	4.6888
68.58	4.6892
68.59	4.6898
68.61	4.6902
68.63	4.6909
68.64	4.6913
68.66	4.6918
68.68	4.6924
68.69	4.6930
68.70	4.6934
68.72	4.6940
68.74	4.6943
68.76	4.6947
68.78	4.6953
68.79	4.6957
68.81	4.6960
68.83	4.6965
68.84	4.6971
68.86	4.6978
68.88	4.6985
68.89	4.6991
68.91	4.6999
68.92	4.7004
68.94	4.7010
68.96	4.7017
68.98	4.7022
69.00	4.7028
69.01	4.7033
69.03	4.7039
69.05	4.7045
69.06	4.7049
69.08	4.7052
69.09	4.7058
69.11	4.7063
69.13	4.7065
69.14	4.7071
69.16	4.7076
69.18	4.7083
69.20	4.7091
69.21	4.7096
69.23	4.7102
69.25	4.7110
69.27	4.7116
69.28	4.7123
69.30	4.7128
69.31	4.7137
69.33	4.7141
69.34	4.7147
69.36	4.7152
69.38	4.7158
69.39	4.7164
69.41	4.7170
69.42	4.7177
69.44	4.7182
69.45	4.7189
69.48	4.7193
69.49	4.7201
69.51	4.7208
69.53	4.7213
69.54	4.7220
69.56	4.7226
69.58	4.7234
69.59	4.7240
69.60	4.7245
69.63	4.7251
69.64	4.7257
69.66	4.7261
69.67	4.7267
69.69	4.7274
69.71	4.7280
69.73	4.7284
69.74	4.7287
69.76	4.7292
69.78	4.7296
69.79	4.7302
69.81	4.7306
69.82	4.7313
69.84	4.7322
69.86	4.7329
69.87	4.7334
69.89	4.7343
69.91	4.7347
69.93	4.7353
69.95	4.7359
69.96	4.7365
69.98	4.7369
69.99	4.7376
70.01	4.7383
70.03	4.7388
70.04	4.7392
70.06	4.7397
70.08	4.7404
70.09	4.7408
70.11	4.7414
70.13	4.7419
70.14	4.7426
70.16	4.7430
70.17	4.7438
70.19	4.7446
70.21	4.7452
70.23	4.7460
70.24	4.7466
70.26	4.7471
70.28	4.7476
70.29	4.7481
70.31	4.7488
70.33	4.7495
70.34	4.7499
70.36	4.7505
70.38	4.7511
70.39	4.7516
70.41	4.7521
70.42	4.7526
70.44	4.7533
70.45	4.7536
70.47	4.7543
70.49	4.7552
70.50	4.7557
70.53	4.7564
70.54	4.7569
70.55	4.7577
70.58	4.7584
70.59	4.7591
70.61	4.7598
70.63	4.7604
70.64	4.7613
70.66	4.7619
70.67	4.7624
70.69	4.7630
70.70	4.7635
70.72	4.7640
70.74	4.7645
70.76	4.7651
70.78	4.7654
70.80	4.7660
70.81	4.7666
70.83	4.7673
70.84	4.7682
70.86	4.7687
70.87	4.7694
70.89	4.7702
70.91	4.7706
70.92	4.7712
70.94	4.7718
70.96	4.7721
70.98	4.7725
70.99	4.7734
71.01	4.7739
71.03	4.7746
71.05	4.7749
71.05	4.7754
71.07	4.7757
71.09	4.7762
71.10	4.7766
71.13	4.7771
71.14	4.7782
71.16	4.7785
71.17	4.7792
71.19	4.7800
71.21	4.7807
71.23	4.7812
71.24	4.7818
71.25	4.7824
71.27	4.7830
71.29	4.7836
71.31	4.7841
71.33	4.7847
71.34	4.7853
71.36	4.7857
71.38	4.7861
71.39	4.7865
71.42	4.7870
71.43	4.7875
71.44	4.7879
71.46	4.7885
71.47	4.7893
71.49	4.7901
71.50	4.7907
71.52	4.7914
71.54	4.7919
71.55	4.7925
71.57	4.7932
71.58	4.7936
71.60	4.7944
71.62	4.7951
71.64	4.7955
71.65	4.7961
71.67	4.7967
71.69	4.7974
71.71	4.7980
71.73	4.7985
71.74	4.7992
71.75	4.7995
71.78	4.8001
71.79	4.8003
71.80	4.8008
71.82	4.8014
71.84	4.8024
71.85	4.8028
71.87	4.8036
71.89	4.8041
71.91	4.8048
71.92	4.8053
71.94	4.8059
71.96	4.8067
71.98	4.8074
71.99	4.8083
72.00	4.8084
72.02	4.8091
72.04	4.8097
72.06	4.8100
72.07	4.8102
72.09	4.8107
72.10	4.8111
72.12	4.8116
72.14	4.8125
72.15	4.8131
72.17	4.8139
72.19	4.8146
72.20	4.8152
72.22	4.8157
72.24	4.8163
72.25	4.8168
72.27	4.8172
72.29	4.8178
72.31	4.8184
72.32	4.8192
72.33	4.8198
72.35	4.8203
72.37	4.8208
72.39	4.8213
72.40	4.8218
72.42	4.8223
72.44	4.8230
72.45	4.8233
72.47	4.8239
72.48	4.8247
72.50	4.8253
72.52	4.8260
72.54	4.8266
72.56	4.8273
72.58	4.8280
72.59	4.8285
72.60	4.8289
72.62	4.8295
72.64	4.8300
72.65	4.8304
72.67	4.8311
72.69	4.8317
72.70	4.8319
72.73	4.8324
72.74	4.8330
72.76	4.8335
72.78	4.8341
72.79	4.8346
72.81	4.8355
72.83	4.8362
72.84	4.8370
72.85	4.8374
72.88	4.8382
72.89	4.8388
72.91	4.8394
72.92	4.8401
72.94	4.8407
72.96	4.8414
72.98	4.8417
72.99	4.8425
73.00	4.8429
73.03	4.8436
73.04	4.8442
73.06	4.8446
73.08	4.8450
73.09	4.8455
73.11	4.8460
73.13	4.8467
73.14	4.8473
73.16	4.8477
73.18	4.8485
73.19	4.8493
73.21	4.8500
73.23	4.8507
73.24	4.8510
73.26	4.8515
73.28	4.8522
73.30	4.8528
73.31	4.8535
73.33	4.8540
73.34	4.8545
73.36	4.8550
73.37	4.8553
73.39	4.8561
73.41	4.8567
73.42	4.8570
73.44	4.8577
73.46	4.8583
73.48	4.8590
73.49	4.8601
73.50	4.8606
73.53	4.8613
73.54	4.8619
73.56	4.8624
73.58	4.8629
73.59	4.8633
73.61	4.8640
73.63	4.8644
73.64	4.8649
73.66	4.8657
73.68	4.8663
73.70	4.8670
73.71	4.8673
73.73	4.8679
73.75	4.8688
73.76	4.8693
73.78	4.8700
73.79	4.8705
73.81	4.8713
73.83	4.8720
73.84	4.8726
73.86	4.8731
73.88	4.8740
73.89	4.8744
73.91	4.8751
73.92	4.8753
73.94	4.8761
73.95	4.8766
73.97	4.8772
73.99	4.8778
74.01	4.8784
74.03	4.8788
74.04	4.8795
74.06	4.8799
74.08	4.8803
74.09	4.8809
74.11	4.8816
74.13	4.8822
74.14	4.8831
74.16	4.8837
74.17	4.8844
74.19	4.8853
74.20	4.8860
74.23	4.8867
74.24	4.8873
74.26	4.8879
74.28	4.8885
74.30	4.8890
74.31	4.8894
74.33	4.8901
74.34	4.8908
74.36	4.8911
74.38	4.8918
74.39	4.8920
74.41	4.8924
74.43	4.8931
74.45	4.8938
74.46	4.8945
74.48	4.8952
74.49	4.8959
74.51	4.8965
74.53	4.8972
74.54	4.8980
74.56	4.8986
74.58	4.8991
74.59	4.8995
74.61	4.9000
74.62	4.9006
74.64	4.9010
74.65	4.9014
74.67	4.9021
74.69	4.9025
74.71	4.9030
74.73	4.9035
74.74	4.9040
74.76	4.9046
74.78	4.9053
74.80	4.9056
74.81	4.9064
74.83	4.9070
74.84	4.9078
74.85	4.9083
74.87	4.9090
74.89	4.9099
74.91	4.9106
74.93	4.9107
74.94	4.9113
74.96	4.9118
74.98	4.9124
74.99	4.9128
75.00	4.9136
75.03	4.9140
75.04	4.9145
75.06	4.9150
75.08	4.9155
75.09	4.9161
75.11	4.9168
75.13	4.9174
75.14	4.9180
75.16	4.9188
75.17	4.9199
75.20	4.9204
75.21	4.9211
75.23	4.9216
75.24	4.9221
75.26	4.9228
75.28	4.9236
75.30	4.9238
75.31	4.9243
75.33	4.9248
75.34	4.9252
75.36	4.9258
75.38	4.9262
75.39	4.9268
75.41	4.9273
75.43	4.9279
75.45	4.9286
75.46	4.9291
75.48	4.9300
75.49	4.9306
75.51	4.9312
75.53	4.9320
75.54	4.9326
75.56	4.9331
75.58	4.9338
75.59	4.9343
75.61	4.9349
75.63	4.9355
75.64	4.9361
75.66	4.9363
75.67	4.9370
75.69	4.9372
75.71	4.9377
75.73	4.9384
75.74	4.9390
75.76	4.9394
75.78	4.9400
75.79	4.9406
75.81	4.9417
75.82	4.9421
75.84	4.9427
75.86	4.9434
75.88	4.9441
75.89	4.9445
75.91	4.9452
75.92	4.9461
75.94	4.9467
75.96	4.9471
75.98	4.9476
76.00	4.9481
76.01	4.9485
76.03	4.9493
76.05	4.9500
76.06	4.9505
76.08	4.9509
76.09	4.9519
76.11	4.9523
76.13	4.9533
76.14	4.9542
76.16	4.9544
76.18	4.9553
76.20	4.9558
76.21	4.9565
76.23	4.9570
76.24	4.9576
76.26	4.9581
76.28	4.9587
76.29	4.9593
76.31	4.9601
76.33	4.9604
76.34	4.9609
76.36	4.9615
76.38	4.9622
76.39	4.9625
76.41	4.9632
76.43	4.9641
76.45	4.9645
76.46	4.9653
76.48	4.9660
76.49	4.9665
76.51	4.9670
76.53	4.9677
76.55	4.9681
76.56	4.9686
76.58	4.9691
76.59	4.9695
76.61	4.9702
76.63	4.9707
76.64	4.9712
76.66	4.9716
76.67	4.9720
76.69	4.9725
76.71	4.9730
76.73	4.9735
76.74	4.9742
76.76	4.9747
76.78	4.9753
76.79	4.9758
76.80	4.9765
76.83	4.9768
76.84	4.9773
76.86	4.9780
76.88	4.9782
76.90	4.9786
76.91	4.9791
76.93	4.9796
76.95	4.9801
76.96	4.9806
76.97	4.9809
76.99	4.9815
77.00	4.9821
77.03	4.9827
77.04	4.9831
77.06	4.9834
77.08	4.9841
77.09	4.9844
77.11	4.9852
77.13	4.9858
77.14	4.9861
77.16	4.9870
77.18	4.9875
77.19	4.9880
77.21	4.9885
77.23	4.9892
77.25	4.9897
77.26	4.9903
77.28	4.9909
77.29	4.9914
77.31	4.9921
77.33	4.9927
77.34	4.9932
77.36	4.9939
77.38	4.9942
77.39	4.9949
77.41	4.9956
77.42	4.9961
77.45	4.9969
77.46	4.9974
77.47	4.9981
77.49	4.9988
77.51	4.9994
77.53	4.9999
77.54	5.0005
77.56	5.0010
77.58	5.0017
77.59	5.0021
77.61	5.0024
77.63	5.0030
77.64	5.0034
77.66	5.0040
77.68	5.0046
77.69	5.0049
77.71	5.0056
77.73	5.0061
77.75	5.0068
77.76	5.0076
77.77	5.0083
77.80	5.0089
77.81	5.0096
77.82	5.0103
77.83	5.0109
77.86	5.0114
77.88	5.0120
77.89	5.0124
77.91	5.0129
77.93	5.0135
77.94	5.0140
77.95	5.0144
77.98	5.0150
77.99	5.0156
78.01	5.0162
78.03	5.0169
78.04	5.0174
78.06	5.0182
78.08	5.0188
78.09	5.0194
78.11	5.0203
78.13	5.0207
78.14	5.0215
78.16	5.0223
78.18	5.0231
78.20	5.0236
78.21	5.0238
78.23	5.0245
78.24	5.0249
78.26	5.0257
78.28	5.0260
78.30	5.0265
78.31	5.0272
78.33	5.0279
78.34	5.0282
78.36	5.0287
78.38	5.0293
78.39	5.0300
78.41	5.0307
78.42	5.0316
78.45	5.0324
78.46	5.0328
78.48	5.0336
78.49	5.0341
78.51	5.0348
78.52	5.0354
78.54	5.0362
78.55	5.0364
78.57	5.0371
78.59	5.0376
78.61	5.0381
78.63	5.0387
78.64	5.0391
78.66	5.0397
78.68	5.0404
78.70	5.0409
78.71	5.0414
78.73	5.0421
78.74	5.0428
78.75	5.0435
78.77	5.0441
78.79	5.0446
78.80	5.0451
78.83	5.0458
78.84	5.0464
78.85	5.0469
78.88	5.0474
78.89	5.0477
78.91	5.0483
78.92	5.0488
78.94	5.0491
78.95	5.0497
78.98	5.0502
78.99	5.0505
79.01	5.0511
79.03	5.0516
79.04	5.0522
79.05	5.0528
79.07	5.0535
79.09	5.0540
79.11	5.0545
79.12	5.0550
79.14	5.0557
79.16	5.0562
79.17	5.0569
79.20	5.0574
79.21	5.0577
79.22	5.0581
79.23	5.0586
79.25	5.0592
79.28	5.0598
79.29	5.0600
79.30	5.0607
79.33	5.0614
79.34	5.0618
79.36	5.0627
79.37	5.0632
79.39	5.0639
79.41	5.0646
79.42	5.0653
79.44	5.0658
79.46	5.0666
79.48	5.0670
79.49	5.0679
79.51	5.0685
79.53	5.0691
79.54	5.0695
79.56	5.0702
79.58	5.0708
79.59	5.0714
79.61	5.0718
79.63	5.0722
79.64	5.0729
79.66	5.0733
79.67	5.0736
79.69	5.0742
79.71	5.0753
79.73	5.0758
79.74	5.0763
79.76	5.0771
79.77	5.0778
79.79	5.0787
79.81	5.0791
79.83	5.0797
79.84	5.0804
79.85	5.0810
79.87	5.0816
79.89	5.0823
79.90	5.0828
79.92	5.0833
79.94	5.0839
79.95	5.0843
79.97	5.0849
80.00	5.0855
80.01	5.0860
80.02	5.0865
80.04	5.0873
80.06	5.0879
80.08	5.0886
80.09	5.0893
80.11	5.0899
80.13	5.0905
80.14	5.0911
80.16	5.0916
80.17	5.0924
80.19	5.0929
80.21	5.0936
80.23	5.0941
80.24	5.0948
80.26	5.0952
80.28	5.0957
80.29	5.0960
80.31	5.0966
80.33	5.0975
80.34	5.0982
80.35	5.0990
80.38	5.0997
80.39	5.1002
80.41	5.1007
80.43	5.1014
80.44	5.1019
80.46	5.1026
80.48	5.1031
80.49	5.1040
80.50	5.1042
80.52	5.1048
80.54	5.1056
80.55	5.1061
80.57	5.1068
80.59	5.1073
80.61	5.1080
80.63	5.1087
80.64	5.1093
80.65	5.1100
80.67	5.1107
80.69	5.1114
80.70	5.1121
80.73	5.1126
80.74	5.1132
80.75	5.1139
80.77	5.1144
80.79	5.1151
80.80	5.1156
80.83	5.1164
80.84	5.1171
80.85	5.1180
80.87	5.1188
80.89	5.1197
80.90	5.1203
80.92	5.1210
80.94	5.1216
80.96	5.1226
80.98	5.1233
80.99	5.1239
81.00	5.1247
81.02	5.1253
81.04	5.1259
81.05	5.1266
81.07	5.1272
81.09	5.1279
81.10	5.1288
81.12	5.1296
81.14	5.1305
81.15	5.1312
81.17	5.1321
81.19	5.1328
81.20	5.1338
81.22	5.1343
81.23	5.1349
81.25	5.1357
81.27	5.1363
81.29	5.1372
81.30	5.1377
81.33	5.1382
81.34	5.1389
81.35	5.1396
81.37	5.1402
81.39	5.1409
81.40	5.1417
81.42	5.1423
81.44	5.1429
81.45	5.1434
81.47	5.1439
81.49	5.1446
81.51	5.1453
81.53	5.1460
81.54	5.1467
81.55	5.1471
81.57	5.1478
81.59	5.1486
81.61	5.1491
81.62	5.1497
81.63	5.1503
81.65	5.1511
81.67	5.1519
81.69	5.1526
81.70	5.1532
81.72	5.1535
81.74	5.1540
81.75	5.1546
81.77	5.1551
81.79	5.1556
81.80	5.1561
81.82	5.1565
81.84	5.1572
81.85	5.1579
81.87	5.1585
81.88	5.1592
81.90	5.1598
81.92	5.1605
81.93	5.1612
81.95	5.1618
81.97	5.1622
81.99	5.1626
82.00	5.1631
82.02	5.1636
82.03	5.1640
82.05	5.1645
82.06	5.1648
82.08	5.1653
82.10	5.1659
82.12	5.1668
82.13	5.1673
82.15	5.1680
82.17	5.1686
82.19	5.1690
82.21	5.1697
82.22	5.1701
82.24	5.1706
82.25	5.1710
82.27	5.1715
82.29	5.1720
82.30	5.1725
82.32	5.1730
82.34	5.1732
82.34	5.1741
82.36	5.1746
82.38	5.1753
82.40	5.1757
82.42	5.1763
82.43	5.1771
82.45	5.1774
82.46	5.1780
82.48	5.1784
82.50	5.1787
82.52	5.1793
82.53	5.1801
82.55	5.1805
82.57	5.1810
82.58	5.1815
82.60	5.1823
82.62	5.1830
82.64	5.1836
82.65	5.1843
82.67	5.1847
82.68	5.1855
82.70	5.1863
82.72	5.1868
82.73	5.1872
82.75	5.1877
82.77	5.1883
82.78	5.1887
82.80	5.1892
82.82	5.1897
82.84	5.1902
82.85	5.1908
82.87	5.1916
82.88	5.1923
82.90	5.1930
82.92	5.1937
82.93	5.1945
82.95	5.1954
82.97	5.1961
82.98	5.1968
83.00	5.1974
83.02	5.1982
83.03	5.1990
83.05	5.1993
83.06	5.1999
83.09	5.2005
83.10	5.2012
83.11	5.2019
83.13	5.2027
83.15	5.2034
83.17	5.2040
83.18	5.2046
83.20	5.2055
83.22	5.2060
83.23	5.2066
83.25	5.2073
83.27	5.2080
83.28	5.2086
83.30	5.2093
83.32	5.2099
83.33	5.2105
83.34	5.2111
83.36	5.2116
83.38	5.2123
83.39	5.2130
83.41	5.2138
83.43	5.2146
83.45	5.2155
83.47	5.2162
83.48	5.2170
83.50	5.2178
83.52	5.2185
83.53	5.2190
83.55	5.2197
83.56	5.2202
83.58	5.2208
83.59	5.2213
83.61	5.2220
83.63	5.2226
83.65	5.2235
83.67	5.2243
83.69	5.2250
83.70	5.2257
83.72	5.2265
83.73	5.2273
83.75	5.2278
83.76	5.2286
83.78	5.2290
83.80	5.2297
83.81	5.2303
83.83	5.2310
83.84	5.2316
83.86	5.2322
83.88	5.2326
83.89	5.2332
83.92	5.2341
83.93	5.2346
83.95	5.2354
83.96	5.2362
83.98	5.2369
84.00	5.2374
84.02	5.2383
84.03	5.2390
84.05	5.2395
84.06	5.2400
84.08	5.2406
84.10	5.2412
84.12	5.2417
84.13	5.2424
84.15	5.2430
84.16	5.2438
84.18	5.2446
84.20	5.2451
84.22	5.2459
84.23	5.2467
84.25	5.2473
84.26	5.2482
84.28	5.2488
84.30	5.2495
84.31	5.2500
84.33	5.2508
84.34	5.2514
84.36	5.2521
84.38	5.2527
84.39	5.2536
84.41	5.2542
84.43	5.2550
84.45	5.2557
84.46	5.2564
84.48	5.2572
84.49	5.2577
84.51	5.2584
84.53	5.2592
84.54	5.2597
84.57	5.2604
84.58	5.2611
84.59	5.2617
84.61	5.2623
84.63	5.2630
84.64	5.2636
84.66	5.2644
84.67	5.2652
84.69	5.2660
84.71	5.2666
84.73	5.2674
84.74	5.2679
84.76	5.2686
84.78	5.2693
84.79	5.2700
84.81	5.2706
84.83	5.2712
84.84	5.2720
84.86	5.2727
84.88	5.2730
84.89	5.2736
84.91	5.2743
84.93	5.2752
84.94	5.2762
84.96	5.2768
84.98	5.2777
85.00	5.2783
85.01	5.2791
85.03	5.2797
85.05	5.2804
85.06	5.2812
85.08	5.2820
85.09	5.2826
85.11	5.2832
85.13	5.2839
85.14	5.2844
85.16	5.2850
85.18	5.2858
85.19	5.2865
85.21	5.2874
85.23	5.2881
85.25	5.2888
85.27	5.2896
85.28	5.2903
85.30	5.2911
85.31	5.2918
85.33	5.2924
85.34	5.2930
85.36	5.2937
85.38	5.2942
85.39	5.2948
85.41	5.2957
85.42	5.2962
85.44	5.2968
85.46	5.2975
85.47	5.2982
85.49	5.2989
85.51	5.2994
85.53	5.3003
85.54	5.3007
85.56	5.3014
85.58	5.3019
85.59	5.3024
85.61	5.3031
85.63	5.3038
85.64	5.3043
85.66	5.3049
85.67	5.3057
85.69	5.3065
85.71	5.3072
85.72	5.3079
85.74	5.3088
85.76	5.3095
85.78	5.3103
85.79	5.3109
85.81	5.3114
85.83	5.3121
85.84	5.3128
85.85	5.3134
85.88	5.3140
85.89	5.3145
85.90	5.3153
85.92	5.3160
85.94	5.3168
85.96	5.3173
85.98	5.3181
85.99	5.3186
86.01	5.3194
86.02	5.3199
86.04	5.3206
86.05	5.3213
86.08	5.3220
86.09	5.3226
86.11	5.3235
86.12	5.3241
86.14	5.3246
86.16	5.3253
86.17	5.3259
86.19	5.3268
86.20	5.3274
86.22	5.3283
86.24	5.3289
86.26	5.3297
86.28	5.3303
86.29	5.3310
86.30	5.3318
86.32	5.3324
86.34	5.3329
86.35	5.3335
86.37	5.3342
86.39	5.3348
86.40	5.3354
86.42	5.3362
86.44	5.3367
86.45	5.3376
86.47	5.3384
86.49	5.3391
86.50	5.3400
86.52	5.3410
86.54	5.3417
86.55	5.3424
86.57	5.3432
86.59	5.3437
86.60	5.3444
86.62	5.3451
86.64	5.3457
86.65	5.3466
86.67	5.3473
86.68	5.3477
86.70	5.3487
86.73	5.3495
86.74	5.3502
86.76	5.3511
86.77	5.3518
86.79	5.3527
86.81	5.3533
86.83	5.3541
86.84	5.3546
86.85	5.3555
86.87	5.3561
86.88	5.3567
86.90	5.3573
86.92	5.3580
86.94	5.3587
86.95	5.3595
86.97	5.3603
86.99	5.3609
87.00	5.3618
87.02	5.3626
87.03	5.3632
87.05	5.3640
87.07	5.3649
87.09	5.3655
87.10	5.3662
87.12	5.3670
87.13	5.3674
87.15	5.3681
87.17	5.3688
87.19	5.3696
87.20	5.3704
87.22	5.3713
87.24	5.3720
87.25	5.3728
87.26	5.3737
87.28	5.3743
87.30	5.3751
87.32	5.3760
87.33	5.3766
87.35	5.3773
87.37	5.3779
87.38	5.3783
87.40	5.3787
87.42	5.3794
87.43	5.3800
87.45	5.3808
87.47	5.3816
87.48	5.3824
87.50	5.3832
87.52	5.3841
87.53	5.3846
87.55	5.3854
87.57	5.3860
87.59	5.3866
87.60	5.3874
87.62	5.3880
87.64	5.3888
87.65	5.3895
87.67	5.3899
87.68	5.3905
87.70	5.3911
87.71	5.3920
87.73	5.3928
87.75	5.3936
87.77	5.3945
87.78	5.3951
87.80	5.3959
87.82	5.3967
87.83	5.3974
87.85	5.3981
87.87	5.3987
87.88	5.3994
87.89	5.4002
87.91	5.4008
87.93	5.4016
87.95	5.4021
87.97	5.4029
87.98	5.4037
88.00	5.4047
88.02	5.4056
88.03	5.4063
88.05	5.4069
88.07	5.4076
88.08	5.4080
88.10	5.4088
88.11	5.4097
88.13	5.4102
88.15	5.4106
88.17	5.4113
88.18	5.4118
88.20	5.4122
88.21	5.4129
88.23	5.4138
88.25	5.4145
88.27	5.4153
88.28	5.4160
88.30	5.4166
88.31	5.4172
88.33	5.4180
88.34	5.4189
88.36	5.4195
88.38	5.4200
88.39	5.4207
88.42	5.4212
88.43	5.4219
88.45	5.4222
88.47	5.4229
88.48	5.4236
88.50	5.4244
88.51	5.4253
88.53	5.4260
88.55	5.4267
88.56	5.4275
88.58	5.4282
88.59	5.4290
88.61	5.4297
88.63	5.4305
88.64	5.4310
88.66	5.4316
88.68	5.4323
88.70	5.4331
88.71	5.4337
88.73	5.4344
88.75	5.4351
88.76	5.4360
88.78	5.4366
88.80	5.4373
88.81	5.4382
88.83	5.4388
88.84	5.4393
88.86	5.4400
88.88	5.4406
88.89	5.4413
88.91	5.4418
88.93	5.4427
88.94	5.4433
88.96	5.4440
88.98	5.4444
89.00	5.4453
89.01	5.4459
89.03	5.4469
89.04	5.4477
89.06	5.4486
89.08	5.4493
89.09	5.4500
89.11	5.4507
89.13	5.4515
89.14	5.4520
89.16	5.4527
89.17	5.4533
89.20	5.4541
89.21	5.4545
89.23	5.4552
89.24	5.4559
89.26	5.4566
89.28	5.4576
89.30	5.4582
89.31	5.4587
89.33	5.4595
89.34	5.4605
89.36	5.4613
89.38	5.4620
89.39	5.4627
89.41	5.4634
89.43	5.4639
89.44	5.4647
89.46	5.4655
89.48	5.4662
89.49	5.4669
89.51	5.4680
89.53	5.4688
89.55	5.4696
89.56	5.4702
89.58	5.4710
89.59	5.4718
89.61	5.4724
89.63	5.4732
89.64	5.4741
89.66	5.4750
89.67	5.4755
89.70	5.4762
89.71	5.4768
89.73	5.4776
89.75	5.4784
89.76	5.4791
89.78	5.4799
89.79	5.4807
89.81	5.4814
89.83	5.4822
89.84	5.4831
89.86	5.4837
89.88	5.4845
89.89	5.4852
89.90	5.4858
89.92	5.4864
89.94	5.4872
89.96	5.4880
89.97	5.4886
89.99	5.4895
90.01	5.4905
90.03	5.4916
90.04	5.4922
90.05	5.4934
90.07	5.4940
90.09	5.4949
90.10	5.4956
90.12	5.4963
90.14	5.4971
90.15	5.4977
90.17	5.4986
90.19	5.4993
90.20	5.4998
90.23	5.5005
90.25	5.5013
90.25	5.5020
90.25	5.5031
90.26	5.5040
90.29	5.5049
90.32	5.5056
90.34	5.5065
90.35	5.5071
90.37	5.5078
90.39	5.5086
90.40	5.5092
90.42	5.5100
90.43	5.5109
90.45	5.5115
90.47	5.5121
90.49	5.5131
90.50	5.5137
90.52	5.5147
90.53	5.5156
90.55	5.5164
90.57	5.5172
90.59	5.5179
90.60	5.5186
90.62	5.5192
90.63	5.5197
90.65	5.5203
90.67	5.5209
90.69	5.5217
90.70	5.5223
90.73	5.5232
90.73	5.5238
90.75	5.5246
90.77	5.5256
90.78	5.5264
90.80	5.5270
90.82	5.5278
90.83	5.5287
90.85	5.5294
90.87	5.5301
90.89	5.5310
90.90	5.5316
90.92	5.5323
90.94	5.5332
90.95	5.5340
90.97	5.5348
90.98	5.5355
91.00	5.5362
91.02	5.5372
91.04	5.5382
91.05	5.5389
91.07	5.5397
91.09	5.5404
91.10	5.5413
91.12	5.5422
91.14	5.5430
91.15	5.5438
91.17	5.5447
91.19	5.5454
91.20	5.5461
91.22	5.5467
91.24	5.5476
91.26	5.5484
91.27	5.5493
91.29	5.5502
91.30	5.5512
91.32	5.5520
91.33	5.5528
91.35	5.5537
91.37	5.5543
91.38	5.5549
91.40	5.5557
91.42	5.5564
91.44	5.5573
91.45	5.5577
91.47	5.5586
91.49	5.5591
91.50	5.5598
91.53	5.5605
91.54	5.5614
91.55	5.5623
91.57	5.5632
91.58	5.5638
91.60	5.5647
91.63	5.5654
91.64	5.5663
91.65	5.5670
91.67	5.5677
91.68	5.5685
91.70	5.5689
91.72	5.5697
91.74	5.5705
91.75	5.5710
91.77	5.5718
91.78	5.5725
91.80	5.5733
91.82	5.5743
91.83	5.5754
91.85	5.5760
91.86	5.5769
91.88	5.5777
91.90	5.5784
91.92	5.5792
91.94	5.5800
91.95	5.5807
91.97	5.5814
91.99	5.5820
92.00	5.5828
92.02	5.5835
92.03	5.5843
92.05	5.5853
92.07	5.5864
92.08	5.5873
92.10	5.5880
92.12	5.5890
92.13	5.5898
92.15	5.5906
92.17	5.5914
92.18	5.5925
92.20	5.5932
92.22	5.5938
92.23	5.5945
92.25	5.5954
92.27	5.5960
92.28	5.5969
92.30	5.5978
92.32	5.5988
92.34	5.5996
92.34	5.6004
92.37	5.6014
92.38	5.6022
92.40	5.6029
92.42	5.6036
92.44	5.6043
92.45	5.6050
92.47	5.6056
92.48	5.6064
92.50	5.6072
92.52	5.6079
92.54	5.6088
92.55	5.6096
92.57	5.6106
92.58	5.6115
92.60	5.6123
92.62	5.6132
92.63	5.6140
92.65	5.6147
92.67	5.6155
92.69	5.6163
92.70	5.6169
92.72	5.6175
92.73	5.6181
92.75	5.6187
92.77	5.6191
92.78	5.6199
92.80	5.6206
92.82	5.6212
92.83	5.6221
92.85	5.6228
92.87	5.6236
92.88	5.6244
92.90	5.6249
92.92	5.6258
92.93	5.6266
92.95	5.6270
92.96	5.6279
92.98	5.6286
93.00	5.6293
93.01	5.6301
93.03	5.6306
93.05	5.6314
93.07	5.6322
93.08	5.6331
93.10	5.6336
93.12	5.6342
93.13	5.6349
93.15	5.6355
93.17	5.6365
93.18	5.6372
93.20	5.6378
93.21	5.6386
93.23	5.6393
93.25	5.6399
93.27	5.6406
93.28	5.6412
93.30	5.6419
93.32	5.6427
93.33	5.6435
93.35	5.6442
93.37	5.6449
93.38	5.6458
93.40	5.6465
93.42	5.6472
93.43	5.6478
93.45	5.6487
93.47	5.6494
93.48	5.6501
93.50	5.6509
93.52	5.6517
93.53	5.6523
93.55	5.6531
93.56	5.6540
93.58	5.6548
93.59	5.6556
93.62	5.6564
93.63	5.6571
93.64	5.6581
93.67	5.6589
93.68	5.6597
93.70	5.6604
93.72	5.6611
93.73	5.6619
93.75	5.6626
93.77	5.6632
93.78	5.6639
93.80	5.6645
93.82	5.6654
93.83	5.6661
93.85	5.6670
93.86	5.6678
93.88	5.6685
93.89	5.6695
93.91	5.6699
93.93	5.6708
93.95	5.6714
93.96	5.6722
93.98	5.6728
94.00	5.6736
94.01	5.6741
94.03	5.6748
94.05	5.6755
94.07	5.6763
94.08	5.6771
94.10	5.6781
94.12	5.6789
94.13	5.6797
94.14	5.6807
94.16	5.6816
94.18	5.6823
94.20	5.6829
94.21	5.6837
94.23	5.6844
94.25	5.6851
94.26	5.6860
94.28	5.6866
94.30	5.6874
94.31	5.6880
94.33	5.6887
94.34	5.6894
94.36	5.6902
94.38	5.6911
94.39	5.6919
94.41	5.6927
94.42	5.6937
94.44	5.6945
94.46	5.6952
94.48	5.6962
94.50	5.6970
94.51	5.6976
94.53	5.6983
94.55	5.6990
94.56	5.6997
94.58	5.7006
94.59	5.7013
94.61	5.7021
94.63	5.7029
94.64	5.7038
94.66	5.7046
94.68	5.7052
94.70	5.7061
94.71	5.7070
94.73	5.7078
94.74	5.7086
94.76	5.7093
94.78	5.7101
94.79	5.7109
94.81	5.7117
94.83	5.7126
94.84	5.7135
94.86	5.7145
94.88	5.7152
94.89	5.7162
94.91	5.7168
94.92	5.7175
94.94	5.7184
94.96	5.7193
94.98	5.7200
94.99	5.7208
95.01	5.7215
95.03	5.7221
95.05	5.7230
95.06	5.7237
95.08	5.7244
95.09	5.7252
95.11	5.7263
95.13	5.7270
95.14	5.7277
95.16	5.7286
95.17	5.7291
95.19	5.7300
95.21	5.7308
95.23	5.7315
95.24	5.7323
95.26	5.7330
95.28	5.7335
95.30	5.7344
95.31	5.7353
95.33	5.7360
95.34	5.7368
95.36	5.7376
95.38	5.7384
95.39	5.7395
95.41	5.7403
95.42	5.7409
95.45	5.7418
95.46	5.7426
95.48	5.7434
95.49	5.7442
95.51	5.7448
95.53	5.7454
95.54	5.7461
95.56	5.7470
95.58	5.7479
95.59	5.7490
95.61	5.7498
95.63	5.7506
95.64	5.7516
95.66	5.7525
95.68	5.7533
95.69	5.7540
95.70	5.7548
95.73	5.7559
95.74	5.7565
95.76	5.7573
95.78	5.7579
95.79	5.7587
95.81	5.7596
95.82	5.7606
95.84	5.7615
95.85	5.7624
95.88	5.7633
95.89	5.7644
95.91	5.7653
95.92	5.7663
95.94	5.7671
95.96	5.7681
95.98	5.7687
95.99	5.7697
96.01	5.7703
96.03	5.7711
96.05	5.7718
96.06	5.7726
96.08	5.7733
96.09	5.7743
96.11	5.7751
96.13	5.7758
96.14	5.7764
96.16	5.7772
96.17	5.7780
96.19	5.7787
96.21	5.7795
96.23	5.7801
96.24	5.7808
96.25	5.7815
96.27	5.7820
96.29	5.7826
96.30	5.7832
96.33	5.7840
96.34	5.7848
96.36	5.7856
96.38	5.7864
96.39	5.7870
96.40	5.7878
96.42	5.7885
96.44	5.7889
96.46	5.7896
96.47	5.7902
96.49	5.7909
96.50	5.7915
96.52	5.7920
96.54	5.7927
96.56	5.7934
96.58	5.7941
96.59	5.7949
96.61	5.7955
96.63	5.7963
96.64	5.7970
96.65	5.7980
96.67	5.7988
96.70	5.7996
96.71	5.8002
96.72	5.8010
96.74	5.8019
96.76	5.8027
96.78	5.8032
96.79	5.8042
96.81	5.8049
96.83	5.8055
96.84	5.8064
96.86	5.8074
96.87	5.8082
96.89	5.8092
96.91	5.8102
96.92	5.8111
96.94	5.8119
96.96	5.8128
96.98	5.8136
96.99	5.8146
97.01	5.8156
97.03	5.8165
97.04	5.8172
97.06	5.8180
97.08	5.8192
97.09	5.8202
97.11	5.8209
97.13	5.8222
97.14	5.8232
97.15	5.8244
97.17	5.8253
97.19	5.8263
97.21	5.8273
97.23	5.8282
97.24	5.8290
97.25	5.8301
97.27	5.8309
97.29	5.8317
97.31	5.8326
97.32	5.8336
97.34	5.8346
97.35	5.8356
97.38	5.8367
97.39	5.8379
97.40	5.8391
97.42	5.8401
97.44	5.8412
97.46	5.8421
97.48	5.8430
97.49	5.8440
97.51	5.8448
97.52	5.8458
97.54	5.8468
97.56	5.8477
97.58	5.8486
97.59	5.8493
97.61	5.8503
97.63	5.8513
97.64	5.8523
97.66	5.8533
97.67	5.8544
97.69	5.8553
97.71	5.8563
97.73	5.8572
97.74	5.8580
97.76	5.8589
97.77	5.8595
97.79	5.8603
97.80	5.8610
97.82	5.8617
97.84	5.8627
97.85	5.8636
97.88	5.8644
97.89	5.8652
97.90	5.8661
97.92	5.8670
97.94	5.8678
97.95	5.8688
97.97	5.8697
97.99	5.8705
98.00	5.8713
98.02	5.8719
98.04	5.8728
98.06	5.8737
98.07	5.8743
98.09	5.8752
98.11	5.8760
98.13	5.8768
98.14	5.8778
98.15	5.8789
98.17	5.8798
98.19	5.8806
98.21	5.8814
98.23	5.8824
98.24	5.8831
98.25	5.8840
98.27	5.8848
98.29	5.8856
98.30	5.8864
98.32	5.8870
98.34	5.8879
98.35	5.8887
98.37	5.8896
98.39	5.8906
98.40	5.8915
98.42	5.8924
98.44	5.8934
98.45	5.8943
98.47	5.8952
98.49	5.8960
98.50	5.8967
98.52	5.8974
98.54	5.8983
98.55	5.8991
98.57	5.8999
98.58	5.9008
98.60	5.9018
98.62	5.9027
98.64	5.9039
98.66	5.9049
98.67	5.9057
98.69	5.9066
98.70	5.9073
98.72	5.9081
98.74	5.9091
98.76	5.9099
98.78	5.9109
98.79	5.9117
98.80	5.9125
98.82	5.9133
98.84	5.9143
98.86	5.9150
98.87	5.9158
98.89	5.9169
98.90	5.9178
98.92	5.9185
98.94	5.9194
98.95	5.9203
98.97	5.9209
98.99	5.9218
99.00	5.9224
99.02	5.9231
99.04	5.9238
99.05	5.9245
99.07	5.9253
99.09	5.9261
99.10	5.9266
99.12	5.9273
99.14	5.9281
99.15	5.9289
99.17	5.9298
99.19	5.9305
99.20	5.9316
99.22	5.9324
99.24	5.9331
99.25	5.9338
99.27	5.9345
99.29	5.9352
99.30	5.9361
99.32	5.9369
99.34	5.9374
99.35	5.9380
99.37	5.9390
99.39	5.9400
99.41	5.9408
99.42	5.9418
99.44	5.9424
99.45	5.9433
99.47	5.9441
99.49	5.9448
99.51	5.9455
99.52	5.9463
99.53	5.9472
99.55	5.9482
99.57	5.9492
99.58	5.9502
99.60	5.9510
99.62	5.9520
99.64	5.9528
99.65	5.9536
99.67	5.9544
99.68	5.9554
99.70	5.9562
99.72	5.9573
99.74	5.9584
99.75	5.9592
99.77	5.9602
99.79	5.9612
99.80	5.9621
99.82	5.9631
99.84	5.9639
99.85	5.9648
99.87	5.9658
99.89	5.9668
99.90	5.9678
99.92	5.9691
99.93	5.9700
99.95	5.9708
99.97	5.9720
99.99	5.9731
100.00	5.9739
100.02	5.9747
100.04	5.9756
100.05	5.9766
100.07	5.9773
100.09	5.9782
100.10	5.9790
100.12	5.9800
100.13	5.9810
100.15	5.9819
100.17	5.9829
100.19	5.9840
100.20	5.9847
100.22	5.9857
100.23	5.9866
100.25	5.9873
100.27	5.9881
100.29	5.9889
100.30	5.9897
100.32	5.9903
100.34	5.9910
100.35	5.9918
100.37	5.9927
100.39	5.9936
100.40	5.9943
100.42	5.9954
100.44	5.9962
100.45	5.9971
100.47	5.9980
100.49	5.9990
100.50	5.9998
100.52	6.0008
100.54	6.0015
100.55	6.0024
100.57	6.0032
100.58	6.0041
100.60	6.0047
100.62	6.0056
100.63	6.0066
100.65	6.0075
100.67	6.0085
100.68	6.0092
100.70	6.0101
100.72	6.0110
100.74	6.0118
100.75	6.0127
100.77	6.0137
100.79	6.0144
100.80	6.0154
100.82	6.0163
100.84	6.0170
100.85	6.0178
100.87	6.0187
100.88	6.0197
100.90	6.0207
100.92	6.0215
100.93	6.0226
100.95	6.0236
100.97	6.0246
100.98	6.0255
101.00	6.0262
101.02	6.0272
101.03	6.0281
101.05	6.0290
101.07	6.0298
101.08	6.0306
101.10	6.0313
101.12	6.0322
101.14	6.0331
101.15	6.0340
101.17	6.0349
101.18	6.0359
101.19	6.0368
101.21	6.0376
101.23	6.0383
101.25	6.0391
101.27	6.0400
101.29	6.0407
101.30	6.0417
101.32	6.0425
101.33	6.0433
101.35	6.0439
101.37	6.0448
101.39	6.0458
101.40	6.0469
101.42	6.0479
101.44	6.0489
101.46	6.0498
101.47	6.0505
101.49	6.0514
101.50	6.0522
101.52	6.0527
101.54	6.0536
101.55	6.0544
101.57	6.0552
101.58	6.0560
101.60	6.0568
101.62	6.0576
101.63	6.0583
101.65	6.0593
101.67	6.0603
101.69	6.0612
101.70	6.0621
101.72	6.0630
101.73	6.0641
101.75	6.0647
101.77	6.0655
101.79	6.0663
101.80	6.0672
101.82	6.0679
101.84	6.0686
101.85	6.0695
101.87	6.0704
101.89	6.0714
101.90	6.0723
101.92	6.0734
101.94	6.0745
101.95	6.0754
101.97	6.0766
101.99	6.0776
102.00	6.0784
102.02	6.0794
102.04	6.0803
102.05	6.0811
102.07	6.0821
102.09	6.0830
102.10	6.0839
102.12	6.0849
102.13	6.0857
102.15	6.0865
102.17	6.0876
102.19	6.0887
102.20	6.0895
102.22	6.0905
102.24	6.0915
102.25	6.0922
102.27	6.0932
102.28	6.0941
102.30	6.0950
102.32	6.0960
102.34	6.0967
102.35	6.0973
102.37	6.0985
102.38	6.0995
102.40	6.1005
102.41	6.1014
102.43	6.1026
102.45	6.1035
102.47	6.1046
102.48	6.1055
102.50	6.1061
102.52	6.1072
102.53	6.1081
102.55	6.1091
102.57	6.1100
102.59	6.1108
102.60	6.1115
102.62	6.1123
102.64	6.1133
102.65	6.1142
102.67	6.1149
102.69	6.1159
102.70	6.1166
102.72	6.1175
102.74	6.1183
102.75	6.1191
102.77	6.1200
102.78	6.1209
102.80	6.1216
102.81	6.1225
102.83	6.1234
102.85	6.1242
102.87	6.1249
102.88	6.1260
102.90	6.1268
102.92	6.1279
102.93	6.1289
102.95	6.1298
102.97	6.1309
102.99	6.1320
103.00	6.1328
103.02	6.1338
103.04	6.1347
103.05	6.1354
103.07	6.1361
103.08	6.1372
103.10	6.1381
103.12	6.1390
103.13	6.1401
103.15	6.1411
103.17	6.1421
103.18	6.1432
103.20	6.1444
103.22	6.1455
103.23	6.1466
103.25	6.1476
103.27	6.1486
103.28	6.1497
103.30	6.1508
103.31	6.1520
103.33	6.1530
103.35	6.1538
103.37	6.1548
103.38	6.1560
103.40	6.1572
103.41	6.1585
103.43	6.1594
103.45	6.1607
103.47	6.1619
103.48	6.1629
103.50	6.1638
103.52	6.1646
103.53	6.1656
103.55	6.1666
103.57	6.1675
103.58	6.1685
103.60	6.1694
103.62	6.1704
103.63	6.1715
103.65	6.1724
103.67	6.1737
103.68	6.1747
103.70	6.1758
103.71	6.1768
103.73	6.1780
103.74	6.1790
103.75	6.1804
103.78	6.1814
103.80	6.1825
103.82	6.1833
103.83	6.1842
103.85	6.1851
103.86	6.1863
103.88	6.1873
103.90	6.1882
103.92	6.1892
103.93	6.1903
103.95	6.1913
103.97	6.1926
103.98	6.1937
104.00	6.1947
104.01	6.1959
104.03	6.1968
104.05	6.1976
104.07	6.1988
104.08	6.1994
104.10	6.2005
104.11	6.2015
104.13	6.2025
104.15	6.2037
104.17	6.2046
104.18	6.2056
104.20	6.2068
104.22	6.2080
104.23	6.2091
104.25	6.2103
104.26	6.2115
104.28	6.2124
104.30	6.2136
104.31	6.2145
104.33	6.2155
104.35	6.2164
104.36	6.2174
104.38	6.2183
104.40	6.2194
104.42	6.2206
104.43	6.2218
104.45	6.2230
104.46	6.2243
104.48	6.2254
104.50	6.2266
104.52	6.2277
104.53	6.2287
104.55	6.2299
104.57	6.2312
104.58	6.2321
104.60	6.2332
104.62	6.2343
104.63	6.2352
104.65	6.2362
104.67	6.2375
104.68	6.2388
104.70	6.2400
104.71	6.2412
104.73	6.2421
104.75	6.2434
104.77	6.2445
104.78	6.2456
104.80	6.2465
104.81	6.2476
104.83	6.2485
104.84	6.2494
104.86	6.2505
104.88	6.2515
104.90	6.2526
104.91	6.2536
104.93	6.2545
104.95	6.2556
104.97	6.2568
104.98	6.2578
105.00	6.2588
105.01	6.2596
105.03	6.2606
105.05	6.2617
105.07	6.2628
105.08	6.2638
105.10	6.2648
105.12	6.2658
105.13	6.2668
105.15	6.2678
105.17	6.2689
105.18	6.2701
105.20	6.2714
105.21	6.2724
105.23	6.2736
105.25	6.2748
105.27	6.2761
105.28	6.2773
105.30	6.2786
105.32	6.2798
105.33	6.2808
105.35	6.2820
105.36	6.2832
105.38	6.2844
105.40	6.2856
105.41	6.2868
105.43	6.2882
105.45	6.2896
105.46	6.2908
105.48	6.2920
105.50	6.2933
105.51	6.2946
105.53	6.2959
105.55	6.2973
105.56	6.2986
105.58	6.2998
105.60	6.3010
105.62	6.3021
105.63	6.3032
105.64	6.3045
105.66	6.3059
105.68	6.3072
105.70	6.3083
105.71	6.3096
105.73	6.3109
105.75	6.3123
105.77	6.3135
105.78	6.3147
105.80	6.3159
105.81	6.3171
105.83	6.3182
105.85	6.3194
105.86	6.3205
105.88	6.3214
105.89	6.3225
105.91	6.3237
105.93	6.3249
105.95	6.3262
105.96	6.3274
105.98	6.3285
106.00	6.3295
106.01	6.3306
106.03	6.3316
106.05	6.3329
106.06	6.3341
106.08	6.3352
106.10	6.3362
106.11	6.3373
106.13	6.3381
106.15	6.3392
106.17	6.3405
106.18	6.3417
106.20	6.3429
106.21	6.3440
106.23	6.3450
106.25	6.3462
106.26	6.3474
106.28	6.3484
106.29	6.3495
106.31	6.3504
106.33	6.3513
106.34	6.3523
106.36	6.3535
106.38	6.3548
106.40	6.3561
106.41	6.3575
106.43	6.3589
106.45	6.3601
106.46	6.3614
106.48	6.3628
106.50	6.3640
106.51	6.3653
106.53	6.3662
106.54	6.3673
106.56	6.3687
106.58	6.3699
106.60	6.3710
106.61	6.3722
106.63	6.3733
106.65	6.3744
106.66	6.3758
106.68	6.3769
106.69	6.3780
106.71	6.3794
106.73	6.3805
106.74	6.3816
106.76	6.3828
106.78	6.3837
106.79	6.3848
106.81	6.3855
106.83	6.3865
106.84	6.3874
106.86	6.3886
106.88	6.3895
106.90	6.3905
106.91	6.3917
106.93	6.3928
106.94	6.3939
106.96	6.3952
106.98	6.3961
106.99	6.3970
107.01	6.3982
107.03	6.3989
107.04	6.3998
107.06	6.4007
107.08	6.4017
107.09	6.4025
107.11	6.4034
107.12	6.4042
107.14	6.4052
107.16	6.4060
107.18	6.4069
107.19	6.4080
107.20	6.4089
107.22	6.4099
107.24	6.4109
107.26	6.4116
107.28	6.4126
107.29	6.4134
107.31	6.4142
107.33	6.4150
107.34	6.4156
107.35	6.4164
107.38	6.4171
107.39	6.4180
107.40	6.4188
107.43	6.4198
107.44	6.4207
107.46	6.4215
107.48	6.4223
107.49	6.4230
107.51	6.4239
107.53	6.4247
107.54	6.4256
107.56	6.4264
107.58	6.4273
107.59	6.4280
107.60	6.4284
107.62	6.4292
107.64	6.4299
107.66	6.4305
107.68	6.4311
107.69	6.4318
107.71	6.4326
107.73	6.4331
107.74	6.4338
107.76	6.4342
107.77	6.4346
107.79	6.4352
107.80	6.4356
107.83	6.4363
107.84	6.4366
107.86	6.4370
107.87	6.4374
107.89	6.4377
107.90	6.4381
107.93	6.4387
107.94	6.4391
107.96	6.4396
107.98	6.4399
107.99	6.4403
108.01	6.4405
108.03	6.4406
108.04	6.4410
108.05	6.4414
108.08	6.4415
108.09	6.4418
108.10	6.4421
108.12	6.4420
108.14	6.4422
108.15	6.4421
108.17	6.4425
108.19	6.4428
108.21	6.4429
108.22	6.4432
108.24	6.4432
108.25	6.4433
108.27	6.4433
108.29	6.4434
108.31	6.4434
108.32	6.4433
108.34	6.4433
108.35	6.4435
108.37	6.4435
108.39	6.4434
108.40	6.4432
108.42	6.4433
108.44	6.4432
108.45	6.4431
108.47	6.4431
108.49	6.4429
108.50	6.4428
108.53	6.4427
108.54	6.4426
108.55	6.4423
108.58	6.4421
108.59	6.4419
108.60	6.4416
108.63	6.4414
108.64	6.4414
108.65	6.4412
108.67	6.4412
108.69	6.4410
108.70	6.4408
108.73	6.4405
108.74	6.4404
108.75	6.4402
108.78	6.4400
108.79	6.4398
108.80	6.4396
108.82	6.4392
108.84	6.4388
108.85	6.4383
108.87	6.4379
108.88	6.4375
108.90	6.4371
108.92	6.4369
108.94	6.4367
108.95	6.4363
108.97	6.4360
108.99	6.4357
109.01	6.4355
109.02	6.4351
109.04	6.4350
109.06	6.4345
109.07	6.4342
109.09	6.4340
109.10	6.4338
109.12	6.4332
109.14	6.4330
109.15	6.4327
109.17	6.4326
109.18	6.4324
109.20	6.4323
109.22	6.4322
109.24	6.4323
109.25	6.4322
109.27	6.4321
109.29	6.4320
109.30	6.4319
109.32	6.4317
109.34	6.4315
109.35	6.4312
109.37	6.4310
109.39	6.4310
109.40	6.4310
109.42	6.4311
109.44	6.4312
109.45	6.4314
109.47	6.4314
109.49	6.4313
109.50	6.4312
109.52	6.4312
109.54	6.4310
109.55	6.4310
109.57	6.4308
109.59	6.4308
109.60	6.4307
109.62	6.4307
109.64	6.4306
109.65	6.4306
109.67	6.4307
109.69	6.4309
109.70	6.4310
109.72	6.4313
109.73	6.4315
109.75	6.4315
109.77	6.4316
109.79	6.4318
109.80	6.4318
109.82	6.4317
109.84	6.4316
109.86	6.4316
109.87	6.4314
109.88	6.4314
109.90	6.4314
109.92	6.4317
109.94	6.4319
109.96	6.4322
109.98	6.4323
109.99	6.4324
110.00	6.4320
110.02	6.4312
110.04	6.4306
110.05	6.4296
110.07	6.4289
110.08	6.4285
110.10	6.4278
110.12	6.4272
110.14	6.4268
110.15	6.4265
110.17	6.4268
110.19	6.4269
110.20	6.4270
110.22	6.4274
110.24	6.4278
110.26	6.4280
110.27	6.4285
110.29	6.4292
110.30	6.4296
110.33	6.4304
110.34	6.4311
110.35	6.4319
110.37	6.4326
110.39	6.4333
110.40	6.4342
110.42	6.4351
110.44	6.4360
110.45	6.4371
110.47	6.4381
110.49	6.4388
110.50	6.4396
110.53	6.4407
110.54	6.4418
110.55	6.4427
110.58	6.4436
110.59	6.4445
110.60	6.4455
110.62	6.4466
110.64	6.4475
110.66	6.4484
110.68	6.4496
110.69	6.4506
110.70	6.4517
110.72	6.4526
110.74	6.4536
110.75	6.4544
110.77	6.4557
110.79	6.4567
110.80	6.4574
110.83	6.4583
110.84	6.4594
110.86	6.4600
110.87	6.4611
110.89	6.4619
110.90	6.4625
110.92	6.4636
110.94	6.4645
110.96	6.4651
110.97	6.4660
110.98	6.4669
111.00	6.4678
111.02	6.4686
111.04	6.4694
111.05	6.4703
111.07	6.4712
111.08	6.4717
111.10	6.4727
111.12	6.4734
111.14	6.4741
111.15	6.4750
111.18	6.4759
111.19	6.4769
111.21	6.4776
111.23	6.4785
111.24	6.4790
111.26	6.4799
111.28	6.4808
111.29	6.4817
111.30	6.4824
111.32	6.4833
111.34	6.4840
111.36	6.4848
111.38	6.4853
111.39	6.4860
111.40	6.4868
111.43	6.4875
111.44	6.4887
111.45	6.4895
111.47	6.4902
111.49	6.4910
111.50	6.4919
111.52	6.4929
111.54	6.4936
111.55	6.4944
111.58	6.4951
111.59	6.4960
111.60	6.4965
111.62	6.4971
111.64	6.4977
111.65	6.4986
111.68	6.4993
111.69	6.5002
111.70	6.5009
111.72	6.5018
111.74	6.5025
111.75	6.5034
111.77	6.5045
111.79	6.5053
111.80	6.5061
111.82	6.5070
111.84	6.5079
111.85	6.5088
111.87	6.5094
111.89	6.5104
111.90	6.5112
111.92	6.5121
111.94	6.5131
111.95	6.5141
111.97	6.5150
111.99	6.5161
112.00	6.5168
112.02	6.5178
112.04	6.5188
112.05	6.5198
112.07	6.5209
112.08	6.5217
112.10	6.5225
112.12	6.5232
112.13	6.5241
112.15	6.5249
112.17	6.5260
112.19	6.5268
112.20	6.5278
112.22	6.5286
112.24	6.5296
112.26	6.5303
112.28	6.5312
112.29	6.5322
112.30	6.5331
112.32	6.5339
112.33	6.5347
112.36	6.5354
112.38	6.5362
112.39	6.5371
112.40	6.5381
112.42	6.5389
112.44	6.5398
112.45	6.5406
112.47	6.5415
112.49	6.5424
112.50	6.5431
112.52	6.5440
112.54	6.5451
112.55	6.5459
112.57	6.5468
112.59	6.5476
112.61	6.5482
112.62	6.5490
112.64	6.5500
112.65	6.5507
112.67	6.5514
112.69	6.5523
112.71	6.5533
112.72	6.5541
112.74	6.5551
112.75	6.5560
112.77	6.5570
112.79	6.5580
112.80	6.5589
112.82	6.5597
112.84	6.5605
112.85	6.5615
112.87	6.5625
112.89	6.5633
112.90	6.5643
112.92	6.5652
112.94	6.5664
112.95	6.5673
112.97	6.5683
112.98	6.5692
113.00	6.5700
113.02	6.5710
113.04	6.5718
113.05	6.5724
113.07	6.5732
113.08	6.5741
113.10	6.5750
113.12	6.5757
113.14	6.5767
113.15	6.5774
113.17	6.5786
113.18	6.5797
113.20	6.5806
113.22	6.5816
113.24	6.5825
113.25	6.5835
113.27	6.5843
113.28	6.5852
113.30	6.5861
113.32	6.5867
113.34	6.5877
113.35	6.5885
113.37	6.5894
113.39	6.5902
113.40	6.5912
113.42	6.5921
113.43	6.5930
113.45	6.5939
113.47	6.5949
113.49	6.5958
113.50	6.5964
113.52	6.5975
113.54	6.5982
113.55	6.5990
113.57	6.5998
113.59	6.6004
113.60	6.6012
113.62	6.6019
113.64	6.6027
113.65	6.6034
113.67	6.6043
113.68	6.6054
113.70	6.6061
113.72	6.6070
113.74	6.6080
113.75	6.6089
113.77	6.6098
113.79	6.6107
113.80	6.6116
113.82	6.6123
113.83	6.6134
113.85	6.6140
113.87	6.6149
113.89	6.6156
113.90	6.6166
113.92	6.6174
113.94	6.6182
113.95	6.6193
113.97	6.6202
113.98	6.6212
114.00	6.6220
114.02	6.6229
114.03	6.6239
114.05	6.6249
114.07	6.6259
114.09	6.6264
114.10	6.6272
114.12	6.6279
114.13	6.6287
114.15	6.6297
114.17	6.6305
114.19	6.6315
114.20	6.6320
114.22	6.6328
114.24	6.6335
114.25	6.6344
114.27	6.6354
114.29	6.6363
114.30	6.6372
114.32	6.6380
114.33	6.6390
114.35	6.6398
114.37	6.6405
114.38	6.6413
114.40	6.6423
114.42	6.6432
114.43	6.6438
114.45	6.6448
114.47	6.6456
114.49	6.6463
114.50	6.6470
114.52	6.6478
114.53	6.6486
114.55	6.6494
114.57	6.6502
114.59	6.6508
114.60	6.6517
114.62	6.6523
114.64	6.6531
114.65	6.6541
114.67	6.6550
114.68	6.6558
114.70	6.6566
114.72	6.6574
114.73	6.6583
114.75	6.6590
114.77	6.6599
114.79	6.6607
114.80	6.6614
114.82	6.6623
114.84	6.6629
114.85	6.6638
114.87	6.6647
114.89	6.6656
114.90	6.6666
114.92	6.6676
114.93	6.6686
114.96	6.6695
114.97	6.6705
114.99	6.6714
115.00	6.6726
115.02	6.6735
115.03	6.6745
115.05	6.6756
115.07	6.6764
115.08	6.6774
115.10	6.6783
115.12	6.6794
115.13	6.6803
115.15	6.6814
115.17	6.6826
115.18	6.6838
115.20	6.6850
115.22	6.6861
115.23	6.6872
115.25	6.6885
115.28	6.6896
115.29	6.6906
115.30	6.6915
115.32	6.6925
115.33	6.6935
115.35	6.6945
115.37	6.6954
115.38	6.6962
115.40	6.6972
115.42	6.6983
115.44	6.6993
115.45	6.7004
115.46	6.7014
115.48	6.7022
115.50	6.7034
115.52	6.7044
115.54	6.7054
115.55	6.7063
115.57	6.7072
115.59	6.7081
115.60	6.7091
115.62	6.7099
115.63	6.7108
115.65	6.7115
115.67	6.7120
115.69	6.7127
115.70	6.7131
115.72	6.7138
115.74	6.7144
115.75	6.7147
115.77	6.7154
115.78	6.7160
115.80	6.7166
115.82	6.7173
115.83	6.7178
115.85	6.7187
115.87	6.7193
115.88	6.7200
115.90	6.7209
115.92	6.7219
115.93	6.7226
115.95	6.7237
115.97	6.7248
115.98	6.7256
116.00	6.7265
116.02	6.7275
116.03	6.7283
116.05	6.7291
116.06	6.7300
116.08	6.7309
116.10	6.7317
116.12	6.7324
116.13	6.7335
116.15	6.7345
116.16	6.7355
116.18	6.7367
116.20	6.7377
116.22	6.7387
116.23	6.7399
116.25	6.7409
116.27	6.7418
116.28	6.7427
116.30	6.7437
116.32	6.7446
116.33	6.7457
116.35	6.7466
116.36	6.7477
116.38	6.7483
116.40	6.7494
116.41	6.7504
116.43	6.7513
116.45	6.7522
116.46	6.7533
116.48	6.7542
116.50	6.7553
116.51	6.7564
116.53	6.7572
116.55	6.7581
116.57	6.7591
116.58	6.7599
116.60	6.7609
116.62	6.7617
116.63	6.7628
116.65	6.7637
116.66	6.7649
116.68	6.7657
116.70	6.7670
116.72	6.7679
116.73	6.7688
116.75	6.7699
116.76	6.7710
116.78	6.7719
116.80	6.7729
116.82	6.7740
116.83	6.7749
116.85	6.7759
116.87	6.7770
116.88	6.7779
116.90	6.7790
116.91	6.7801
116.93	6.7811
116.95	6.7823
116.97	6.7832
116.98	6.7840
117.00	6.7851
117.02	6.7862
117.03	6.7870
117.05	6.7880
117.06	6.7889
117.08	6.7900
117.10	6.7909
117.12	6.7920
117.13	6.7930
117.15	6.7940
117.16	6.7949
117.18	6.7959
117.20	6.7969
117.21	6.7980
117.23	6.7990
117.25	6.8000
117.26	6.8009
117.28	6.8018
117.30	6.8028
117.31	6.8037
117.33	6.8045
117.35	6.8053
117.36	6.8062
117.38	6.8070
117.40	6.8082
117.41	6.8092
117.42	6.8101
117.44	6.8112
117.46	6.8123
117.48	6.8129
117.50	6.8141
117.52	6.8153
117.53	6.8160
117.55	6.8167
117.57	6.8177
117.58	6.8184
117.60	6.8193
117.62	6.8201
117.63	6.8211
117.65	6.8222
117.66	6.8232
117.68	6.8241
117.70	6.8251
117.71	6.8261
117.73	6.8270
117.74	6.8281
117.76	6.8289
117.78	6.8298
117.80	6.8308
117.81	6.8316
117.83	6.8326
117.85	6.8338
117.86	6.8348
117.88	6.8357
117.90	6.8366
117.91	6.8376
117.93	6.8386
117.95	6.8396
117.96	6.8404
117.98	6.8415
117.99	6.8422
118.01	6.8431
118.03	6.8439
118.05	6.8446
118.07	6.8454
118.08	6.8461
118.09	6.8470
118.11	6.8478
118.13	6.8489
118.14	6.8497
118.16	6.8507
118.18	6.8516
118.20	6.8527
118.21	6.8534
118.23	6.8542
118.25	6.8550
118.27	6.8557
118.28	6.8564
118.30	6.8571
118.31	6.8578
118.33	6.8585
118.35	6.8593
118.36	6.8600
118.38	6.8610
118.40	6.8619
118.41	6.8630
118.43	6.8641
118.44	6.8651
118.46	6.8660
118.48	6.8668
118.50	6.8677
118.51	6.8686
118.53	6.8695
118.55	6.8702
118.57	6.8710
118.58	6.8717
118.60	6.8726
118.61	6.8734
118.63	6.8745
118.65	6.8753
118.66	6.8766
118.68	6.8773
118.69	6.8783
118.71	6.8792
118.73	6.8803
118.75	6.8813
118.76	6.8820
118.78	6.8829
118.80	6.8838
118.81	6.8848
118.83	6.8855
118.85	6.8863
118.86	6.8874
118.88	6.8884
118.90	6.8894
118.91	6.8906
118.93	6.8917
118.95	6.8927
118.96	6.8938
118.98	6.8947
119.00	6.8959
119.01	6.8971
119.03	6.8979
119.05	6.8987
119.06	6.8997
119.08	6.9006
119.10	6.9014
119.11	6.9023
119.13	6.9033
119.15	6.9044
119.16	6.9053
119.18	6.9064
119.20	6.9075
119.21	6.9087
119.23	6.9096
119.25	6.9106
119.26	6.9116
119.28	6.9125
119.30	6.9135
119.31	6.9144
119.33	6.9152
119.35	6.9161
119.36	6.9171
119.38	6.9182
119.40	6.9193
119.41	6.9203
119.43	6.9215
119.45	6.9226
119.46	6.9235
119.48	6.9245
119.50	6.9254
119.51	6.9262
119.53	6.9273
119.55	6.9282
119.56	6.9290
119.58	6.9303
119.60	6.9313
119.61	6.9325
119.63	6.9338
119.65	6.9347
119.66	6.9356
119.68	6.9366
119.70	6.9376
119.71	6.9387
119.73	6.9394
119.75	6.9404
119.76	6.9412
119.78	6.9423
119.80	6.9434
119.81	6.9445
119.83	6.9458
119.85	6.9467
119.86	6.9477
119.88	6.9487
119.90	6.9496
119.91	6.9507
119.93	6.9518
119.94	6.9528
119.96	6.9539
119.98	6.9550
120.00	6.9561
120.01	6.9570
120.03	6.9581
120.05	6.9591
120.06	6.9599
120.08	6.9610
120.09	6.9621
120.11	6.9632
120.13	6.9643
120.14	6.9654
120.16	6.9662
120.18	6.9674
120.19	6.9685
120.21	6.9695
120.23	6.9706
120.25	6.9716
120.27	6.9725
120.28	6.9734
120.30	6.9743
120.32	6.9753
120.33	6.9763
120.35	6.9774
120.36	6.9785
120.38	6.9796
120.39	6.9808
120.41	6.9817
120.43	6.9827
120.45	6.9837
120.46	6.9848
120.48	6.9859
120.50	6.9868
120.51	6.9878
120.53	6.9890
120.54	6.9901
120.56	6.9910
120.58	6.9920
120.60	6.9932
120.61	6.9943
120.63	6.9955
120.65	6.9966
120.67	6.9977
120.68	6.9988
120.70	6.9999
120.71	7.0010
120.73	7.0022
120.74	7.0029
120.76	7.0040
120.78	7.0050
120.80	7.0061
120.81	7.0071
120.83	7.0079
120.85	7.0091
120.86	7.0101
120.88	7.0112
120.90	7.0122
120.91	7.0133
120.93	7.0143
120.94	7.0153
120.96	7.0164
120.98	7.0172
121.00	7.0183
121.01	7.0191
121.03	7.0200
121.05	7.0209
121.06	7.0219
121.08	7.0227
121.10	7.0237
121.11	7.0245
121.13	7.0259
121.15	7.0268
121.16	7.0277
121.18	7.0287
121.20	7.0297
121.21	7.0306
121.23	7.0315
121.25	7.0326
121.26	7.0334
121.28	7.0345
121.29	7.0353
121.31	7.0361
121.33	7.0370
121.35	7.0380
121.36	7.0391
121.38	7.0404
121.40	7.0412
121.41	7.0421
121.43	7.0431
121.45	7.0440
121.46	7.0448
121.48	7.0457
121.50	7.0467
121.51	7.0476
121.53	7.0484
121.54	7.0494
121.56	7.0503
121.58	7.0512
121.60	7.0524
121.61	7.0533
121.63	7.0545
121.65	7.0555
121.66	7.0565
121.68	7.0575
121.70	7.0585
121.71	7.0595
121.73	7.0604
121.75	7.0615
121.76	7.0623
121.78	7.0633
121.80	7.0642
121.81	7.0648
121.83	7.0659
121.85	7.0668
121.86	7.0678
121.88	7.0689
121.90	7.0699
121.91	7.0709
121.93	7.0720
121.95	7.0731
121.96	7.0741
121.98	7.0751
122.00	7.0762
122.01	7.0771
122.03	7.0780
122.05	7.0792
122.06	7.0801
122.08	7.0813
122.09	7.0822
122.11	7.0833
122.13	7.0843
122.14	7.0854
122.16	7.0864
122.18	7.0875
122.19	7.0887
122.21	7.0896
122.23	7.0906
122.24	7.0917
122.26	7.0929
122.28	7.0940
122.30	7.0951
122.31	7.0960
122.33	7.0971
122.35	7.0984
122.36	7.0994
122.38	7.1006
122.40	7.1017
122.41	7.1026
122.43	7.1037
122.45	7.1046
122.46	7.1057
122.48	7.1066
122.50	7.1077
122.51	7.1086
122.53	7.1098
122.55	7.1107
122.56	7.1116
122.58	7.1127
122.59	7.1137
122.61	7.1146
122.63	7.1157
122.65	7.1168
122.66	7.1176
122.68	7.1186
122.69	7.1197
122.70	7.1208
122.73	7.1216
122.75	7.1226
122.76	7.1235
122.78	7.1244
122.80	7.1253
122.81	7.1262
122.83	7.1272
122.85	7.1283
122.86	7.1291
122.87	7.1302
122.89	7.1312
122.91	7.1320
122.93	7.1333
122.95	7.1342
122.96	7.1351
122.98	7.1362
123.00	7.1370
123.01	7.1378
123.03	7.1389
123.04	7.1399
123.06	7.1410
123.08	7.1421
123.09	7.1431
123.11	7.1442
123.13	7.1452
123.14	7.1464
123.16	7.1475
123.18	7.1487
123.19	7.1499
123.21	7.1509
123.23	7.1520
123.24	7.1530
123.26	7.1538
123.28	7.1548
123.29	7.1560
123.31	7.1569
123.33	7.1578
123.35	7.1592
123.36	7.1603
123.38	7.1613
123.40	7.1627
123.41	7.1635
123.43	7.1644
123.44	7.1656
123.45	7.1663
123.46	7.1673
123.48	7.1682
123.51	7.1690
123.53	7.1700
123.54	7.1709
123.56	7.1718
123.58	7.1730
123.60	7.1741
123.61	7.1750
123.63	7.1761
123.64	7.1772
123.66	7.1782
123.68	7.1793
123.69	7.1803
123.71	7.1811
123.73	7.1824
123.74	7.1833
123.76	7.1842
123.78	7.1852
123.79	7.1862
123.81	7.1871
123.83	7.1881
123.84	7.1892
123.86	7.1903
123.88	7.1917
123.89	7.1928
123.91	7.1937
123.93	7.1946
123.94	7.1955
123.96	7.1965
123.98	7.1976
123.99	7.1984
124.01	7.1995
124.03	7.2007
124.04	7.2016
124.06	7.2026
124.08	7.2037
124.09	7.2046
124.11	7.2057
124.13	7.2067
124.14	7.2075
124.16	7.2086
124.18	7.2096
124.19	7.2107
124.21	7.2118
124.23	7.2127
124.24	7.2138
124.26	7.2146
124.28	7.2156
124.29	7.2166
124.30	7.2175
124.32	7.2186
124.34	7.2197
124.35	7.2204
124.37	7.2216
124.39	7.2226
124.41	7.2234
124.43	7.2244
124.44	7.2252
124.45	7.2262
124.48	7.2272
124.49	7.2281
124.50	7.2289
124.52	7.2300
124.54	7.2310
124.56	7.2321
124.58	7.2334
124.59	7.2344
124.61	7.2354
124.63	7.2366
124.64	7.2376
124.65	7.2386
124.68	7.2395
124.69	7.2406
124.71	7.2416
124.73	7.2425
124.74	7.2434
124.75	7.2443
124.78	7.2454
124.79	7.2466
124.80	7.2477
124.82	7.2486
124.84	7.2497
124.85	7.2510
124.87	7.2520
124.89	7.2532
124.91	7.2543
124.93	7.2553
124.95	7.2562
124.95	7.2575
124.97	7.2584
124.99	7.2592
125.01	7.2602
125.03	7.2611
125.04	7.2619
125.05	7.2632
125.08	7.2642
125.10	7.2652
125.11	7.2664
125.12	7.2676
125.14	7.2687
125.16	7.2697
125.17	7.2707
125.19	7.2718
125.20	7.2727
125.22	7.2737
125.24	7.2746
125.26	7.2757
125.28	7.2766
125.29	7.2776
125.31	7.2786
125.32	7.2797
125.34	7.2806
125.35	7.2817
125.37	7.2828
125.39	7.2838
125.40	7.2848
125.42	7.2860
125.43	7.2869
125.45	7.2878
125.47	7.2888
125.49	7.2897
125.50	7.2908
125.52	7.2920
125.54	7.2929
125.56	7.2941
125.57	7.2953
125.59	7.2962
125.60	7.2972
125.63	7.2983
125.64	7.2990
125.65	7.3000
125.67	7.3010
125.69	7.3022
125.71	7.3032
125.72	7.3042
125.74	7.3052
125.76	7.3062
125.78	7.3071
125.79	7.3083
125.80	7.3095
125.82	7.3105
125.84	7.3114
125.86	7.3125
125.88	7.3136
125.89	7.3146
125.91	7.3159
125.93	7.3166
125.94	7.3174
125.96	7.3185
125.98	7.3195
125.99	7.3206
126.00	7.3215
126.02	7.3226
126.04	7.3237
126.05	7.3248
126.07	7.3257
126.09	7.3268
126.11	7.3278
126.12	7.3290
126.14	7.3300
126.15	7.3309
126.17	7.3320
126.19	7.3328
126.20	7.3337
126.22	7.3348
126.24	7.3356
126.26	7.3367
126.28	7.3377
126.29	7.3387
126.30	7.3401
126.32	7.3410
126.34	7.3420
126.35	7.3433
126.37	7.3445
126.38	7.3456
126.40	7.3464
126.42	7.3474
126.44	7.3484
126.45	7.3493
126.47	7.3505
126.48	7.3514
126.50	7.3522
126.52	7.3534
126.54	7.3543
126.55	7.3554
126.57	7.3567
126.59	7.3575
126.60	7.3586
126.62	7.3597
126.64	7.3606
126.65	7.3615
126.68	7.3625
126.69	7.3633
126.70	7.3642
126.72	7.3650
126.74	7.3657
126.75	7.3668
126.77	7.3677
126.79	7.3688
126.80	7.3696
126.82	7.3709
126.84	7.3719
126.85	7.3728
126.87	7.3741
126.89	7.3748
126.90	7.3758
126.92	7.3768
126.94	7.3778
126.95	7.3787
126.97	7.3796
126.99	7.3801
127.00	7.3810
127.02	7.3821
127.04	7.3832
127.05	7.3844
127.07	7.3856
127.09	7.3865
127.10	7.3876
127.12	7.3885
127.14	7.3894
127.15	7.3906
127.17	7.3914
127.19	7.3924
127.20	7.3935
127.22	7.3945
127.23	7.3955
127.25	7.3963
127.27	7.3975
127.29	7.3985
127.30	7.3994
127.32	7.4006
127.34	7.4017
127.35	7.4027
127.37	7.4037
127.38	7.4049
127.40	7.4060
127.42	7.4070
127.44	7.4079
127.45	7.4090
127.47	7.4101
127.48	7.4111
127.50	7.4121
127.52	7.4133
127.54	7.4141
127.55	7.4153
127.57	7.4166
127.59	7.4177
127.61	7.4188
127.62	7.4198
127.64	7.4208
127.65	7.4219
127.67	7.4227
127.69	7.4237
127.70	7.4248
127.72	7.4260
127.74	7.4269
127.75	7.4280
127.77	7.4293
127.79	7.4303
127.80	7.4313
127.82	7.4324
127.84	7.4335
127.85	7.4344
127.87	7.4354
127.88	7.4364
127.90	7.4375
127.92	7.4387
127.94	7.4396
127.95	7.4408
127.97	7.4418
127.98	7.4429
128.00	7.4439
128.02	7.4451
128.03	7.4461
128.05	7.4472
128.07	7.4483
128.09	7.4495
128.10	7.4505
128.12	7.4516
128.14	7.4524
128.15	7.4535
128.17	7.4546
128.19	7.4555
128.21	7.4565
128.22	7.4576
128.24	7.4585
128.25	7.4598
128.27	7.4609
128.29	7.4619
128.30	7.4631
128.32	7.4641
128.34	7.4652
128.35	7.4662
128.37	7.4674
128.39	7.4684
128.40	7.4695
128.42	7.4705
128.44	7.4714
128.45	7.4721
128.47	7.4730
128.49	7.4740
128.50	7.4750
128.52	7.4760
128.54	7.4769
128.55	7.4780
128.57	7.4790
128.59	7.4801
128.60	7.4812
128.62	7.4821
128.64	7.4830
128.65	7.4838
128.67	7.4848
128.69	7.4857
128.70	7.4866
128.72	7.4875
128.73	7.4886
128.75	7.4896
128.77	7.4907
128.78	7.4917
128.80	7.4926
128.82	7.4936
128.84	7.4945
128.85	7.4955
128.87	7.4967
128.88	7.4975
128.90	7.4984
128.92	7.4993
128.93	7.5002
128.95	7.5009
128.97	7.5019
128.99	7.5028
129.00	7.5037
129.02	7.5045
129.03	7.5056
129.05	7.5065
129.07	7.5075
129.09	7.5086
129.10	7.5094
129.12	7.5103
129.14	7.5112
129.15	7.5121
129.17	7.5129
129.18	7.5137
129.20	7.5149
129.22	7.5159
129.23	7.5169
129.25	7.5178
129.27	7.5189
129.28	7.5198
129.30	7.5207
129.32	7.5218
129.34	7.5226
129.35	7.5235
129.36	7.5245
129.38	7.5254
129.40	7.5263
129.42	7.5275
129.43	7.5279
129.45	7.5289
129.47	7.5298
129.49	7.5308
129.50	7.5318
129.52	7.5328
129.54	7.5341
129.55	7.5351
129.57	7.5360
129.58	7.5371
129.60	7.5383
129.62	7.5392
129.64	7.5402
129.65	7.5414
129.67	7.5426
129.69	7.5436
129.70	7.5445
129.72	7.5456
129.74	7.5469
129.75	7.5480
129.77	7.5489
129.79	7.5502
129.80	7.5512
129.82	7.5524
129.84	7.5535
129.85	7.5546
129.87	7.5556
129.89	7.5567
129.90	7.5580
129.92	7.5590
129.93	7.5601
129.95	7.5613
129.97	7.5624
129.99	7.5637
130.00	7.5649
130.02	7.5660
130.03	7.5672
130.05	7.5685
130.07	7.5696
130.09	7.5708
130.10	7.5719
130.12	7.5730
130.13	7.5741
130.15	7.5750
130.17	7.5762
130.19	7.5773
130.20	7.5784
130.22	7.5794
130.24	7.5806
130.25	7.5817
130.27	7.5830
130.29	7.5841
130.30	7.5854
130.32	7.5863
130.34	7.5873
130.35	7.5885
130.37	7.5895
130.38	7.5907
130.40	7.5918
130.42	7.5929
130.44	7.5941
130.46	7.5952
130.47	7.5964
130.49	7.5975
130.50	7.5987
130.52	7.5999
130.54	7.6011
130.55	7.6023
130.57	7.6034
130.59	7.6044
130.60	7.6054
130.62	7.6066
130.64	7.6076
130.65	7.6087
130.67	7.6097
130.68	7.6109
130.70	7.6121
130.72	7.6131
130.74	7.6142
130.75	7.6155
130.77	7.6166
130.79	7.6179
130.81	7.6191
130.82	7.6201
130.84	7.6212
130.85	7.6224
130.88	7.6234
130.89	7.6247
130.90	7.6257
130.92	7.6268
130.94	7.6280
130.96	7.6291
130.97	7.6303
130.99	7.6313
131.00	7.6325
131.02	7.6337
131.04	7.6350
131.05	7.6363
131.07	7.6374
131.08	7.6384
131.10	7.6395
131.12	7.6404
131.14	7.6413
131.16	7.6426
131.17	7.6437
131.18	7.6448
131.20	7.6459
131.22	7.6470
131.24	7.6482
131.25	7.6492
131.27	7.6501
131.28	7.6513
131.30	7.6524
131.32	7.6536
131.34	7.6550
131.35	7.6558
131.37	7.6570
131.38	7.6581
131.40	7.6591
131.42	7.6599
131.44	7.6609
131.45	7.6621
131.47	7.6631
131.48	7.6641
131.50	7.6651
131.52	7.6663
131.54	7.6675
131.55	7.6685
131.57	7.6695
131.59	7.6706
131.60	7.6715
131.62	7.6726
131.64	7.6736
131.65	7.6745
131.67	7.6757
131.69	7.6766
131.70	7.6777
131.72	7.6789
131.74	7.6800
131.75	7.6811
131.77	7.6822
131.79	7.6833
131.80	7.6844
131.82	7.6855
131.84	7.6867
131.85	7.6877
131.87	7.6887
131.89	7.6896
131.91	7.6906
131.92	7.6914
131.93	7.6925
131.95	7.6937
131.97	7.6944
131.98	7.6954
132.00	7.6965
132.02	7.6976
132.04	7.6985
132.05	7.6995
132.07	7.7005
132.09	7.7015
132.10	7.7025
132.12	7.7034
132.13	7.7043
132.15	7.7056
132.17	7.7067
132.18	7.7079
132.20	7.7092
132.22	7.7104
132.24	7.7115
132.26	7.7127
132.28	7.7139
132.29	7.7151
132.31	7.7164
132.32	7.7176
132.34	7.7188
132.35	7.7199
132.37	7.7212
132.39	7.7224
132.40	7.7236
132.42	7.7247
132.43	7.7258
132.45	7.7271
132.47	7.7282
132.48	7.7295
132.51	7.7307
132.53	7.7320
132.54	7.7332
132.55	7.7343
132.57	7.7356
132.59	7.7367
132.60	7.7380
132.62	7.7390
132.64	7.7399
132.65	7.7412
132.67	7.7425
132.69	7.7438
132.70	7.7452
132.72	7.7464
132.74	7.7476
132.75	7.7488
132.77	7.7498
132.78	7.7512
132.80	7.7524
132.82	7.7535
132.83	7.7546
132.85	7.7555
132.87	7.7565
132.88	7.7576
132.90	7.7587
132.92	7.7596
132.93	7.7606
132.95	7.7618
132.97	7.7630
132.98	7.7643
133.00	7.7655
133.02	7.7667
133.04	7.7679
133.05	7.7690
133.07	7.7700
133.08	7.7711
133.10	7.7721
133.12	7.7733
133.14	7.7742
133.15	7.7753
133.17	7.7764
133.18	7.7776
133.20	7.7788
133.22	7.7799
133.24	7.7809
133.25	7.7821
133.27	7.7832
133.28	7.7843
133.30	7.7854
133.32	7.7863
133.34	7.7874
133.35	7.7883
133.37	7.7892
133.39	7.7903
133.40	7.7916
133.42	7.7927
133.44	7.7940
133.45	7.7953
133.47	7.7965
133.49	7.7975
133.50	7.7985
133.52	7.7997
133.53	7.8008
133.55	7.8021
133.57	7.8029
133.58	7.8043
133.60	7.8052
133.62	7.8063
133.64	7.8073
133.65	7.8085
133.67	7.8097
133.68	7.8109
133.70	7.8122
133.72	7.8133
133.74	7.8144
133.75	7.8155
133.77	7.8166
133.78	7.8176
133.80	7.8186
133.82	7.8197
133.84	7.8211
133.85	7.8220
133.87	7.8231
133.89	7.8244
133.90	7.8257
133.92	7.8268
133.93	7.8282
133.95	7.8294
133.97	7.8304
133.99	7.8315
134.00	7.8326
134.02	7.8335
134.04	7.8346
134.05	7.8356
134.07	7.8366
134.08	7.8378
134.11	7.8390
134.11	7.8401
134.13	7.8414
134.17	7.8427
134.19	7.8438
134.21	7.8452
134.22	7.8466
134.22	7.8475
134.22	7.8486
134.24	7.8498
134.27	7.8511
134.28	7.8524
134.30	7.8535
134.32	7.8547
134.34	7.8557
134.34	7.8570
134.36	7.8580
134.38	7.8594
134.40	7.8608
134.41	7.8620
134.43	7.8634
134.45	7.8646
134.47	7.8658
134.48	7.8671
134.50	7.8686
134.52	7.8696
134.54	7.8709
134.55	7.8720
134.56	7.8731
134.58	7.8745
134.60	7.8758
134.62	7.8769
134.64	7.8781
134.65	7.8794
134.67	7.8806
134.68	7.8821
134.70	7.8832
134.72	7.8843
134.74	7.8858
134.75	7.8869
134.77	7.8881
134.79	7.8894
134.80	7.8904
134.82	7.8916
134.84	7.8927
134.85	7.8939
134.87	7.8950
134.88	7.8964
134.90	7.8976
134.92	7.8987
134.94	7.9001
134.95	7.9013
134.97	7.9025
134.99	7.9034
135.00	7.9046
135.02	7.9059
135.03	7.9072
135.05	7.9082
135.07	7.9093
135.08	7.9106
135.10	7.9117
135.12	7.9128
135.14	7.9140
135.15	7.9153
135.17	7.9165
135.18	7.9179
135.20	7.9191
135.22	7.9204
135.24	7.9218
135.25	7.9229
135.27	7.9240
135.28	7.9249
135.30	7.9261
135.32	7.9270
135.33	7.9280
135.35	7.9290
135.37	7.9302
135.39	7.9315
135.40	7.9328
135.42	7.9339
135.43	7.9348
135.45	7.9357
135.47	7.9366
135.48	7.9377
135.50	7.9386
135.52	7.9397
135.54	7.9407
135.55	7.9416
135.57	7.9426
135.58	7.9437
135.60	7.9449
135.61	7.9459
135.63	7.9469
135.65	7.9480
135.67	7.9490
135.68	7.9500
135.70	7.9510
135.72	7.9522
135.73	7.9532
135.75	7.9540
135.77	7.9549
135.78	7.9558
135.80	7.9566
135.81	7.9575
135.83	7.9585
135.85	7.9596
135.87	7.9608
135.88	7.9620
135.90	7.9631
135.92	7.9643
135.94	7.9653
135.95	7.9666
135.97	7.9678
135.98	7.9690
136.00	7.9699
136.02	7.9710
136.03	7.9723
136.05	7.9734
136.07	7.9746
136.08	7.9757
136.10	7.9769
136.11	7.9782
136.13	7.9792
136.15	7.9804
136.16	7.9816
136.18	7.9830
136.19	7.9841
136.22	7.9855
136.23	7.9867
136.25	7.9881
136.27	7.9892
136.28	7.9904
136.30	7.9916
136.31	7.9926
136.33	7.9939
136.35	7.9953
136.37	7.9965
136.39	7.9979
136.40	7.9992
136.42	8.0006
136.43	8.0020
136.45	8.0032
136.47	8.0042
136.48	8.0053
136.50	8.0064
136.51	8.0075
136.53	8.0087
136.55	8.0099
136.57	8.0109
136.58	8.0122
136.60	8.0135
136.62	8.0147
136.63	8.0159
136.65	8.0170
136.67	8.0182
136.68	8.0194
136.69	8.0206
136.71	8.0216
136.73	8.0228
136.75	8.0236
136.76	8.0247
136.78	8.0258
136.80	8.0268
136.82	8.0280
136.83	8.0294
136.85	8.0306
136.87	8.0319
136.88	8.0332
136.90	8.0343
136.92	8.0355
136.93	8.0366
136.95	8.0379
136.97	8.0390
136.98	8.0402
137.00	8.0412
137.02	8.0423
137.03	8.0434
137.05	8.0443
137.07	8.0455
137.08	8.0470
137.10	8.0484
137.12	8.0497
137.13	8.0510
137.15	8.0523
137.17	8.0536
137.18	8.0546
137.20	8.0557
137.22	8.0570
137.23	8.0581
137.25	8.0596
137.27	8.0606
137.28	8.0615
137.30	8.0628
137.32	8.0641
137.33	8.0655
137.35	8.0666
137.37	8.0679
137.38	8.0692
137.40	8.0704
137.41	8.0717
137.43	8.0730
137.45	8.0742
137.46	8.0753
137.48	8.0764
137.50	8.0776
137.52	8.0786
137.53	8.0799
137.55	8.0810
137.57	8.0823
137.58	8.0836
137.60	8.0849
137.62	8.0861
137.63	8.0874
137.65	8.0885
137.66	8.0899
137.68	8.0911
137.69	8.0925
137.72	8.0936
137.73	8.0950
137.75	8.0963
137.77	8.0976
137.78	8.0987
137.80	8.1000
137.82	8.1013
137.83	8.1028
137.85	8.1041
137.87	8.1054
137.88	8.1067
137.90	8.1081
137.92	8.1094
137.93	8.1109
137.95	8.1119
137.97	8.1132
137.98	8.1145
138.00	8.1157
138.02	8.1169
138.03	8.1184
138.05	8.1198
138.07	8.1212
138.08	8.1224
138.10	8.1237
138.12	8.1248
138.13	8.1261
138.15	8.1272
138.17	8.1283
138.18	8.1294
138.20	8.1303
138.22	8.1313
138.23	8.1322
138.25	8.1331
138.27	8.1344
138.29	8.1356
138.30	8.1365
138.32	8.1379
138.34	8.1391
138.35	8.1401
138.37	8.1414
138.38	8.1426
138.40	8.1439
138.42	8.1451
138.43	8.1462
138.45	8.1475
138.47	8.1486
138.48	8.1498
138.50	8.1511
138.52	8.1523
138.54	8.1537
138.55	8.1553
138.57	8.1565
138.58	8.1579
138.60	8.1592
138.62	8.1607
138.63	8.1621
138.65	8.1634
138.66	8.1648
138.68	8.1659
138.70	8.1671
138.72	8.1685
138.73	8.1699
138.75	8.1711
138.77	8.1725
138.78	8.1739
138.80	8.1753
138.82	8.1766
138.83	8.1779
138.85	8.1793
138.87	8.1806
138.88	8.1818
138.90	8.1831
138.92	8.1845
138.93	8.1856
138.94	8.1868
138.97	8.1881
138.98	8.1894
139.00	8.1906
139.02	8.1918
139.03	8.1933
139.05	8.1946
139.06	8.1963
139.08	8.1978
139.10	8.1989
139.12	8.2003
139.14	8.2017
139.15	8.2030
139.16	8.2043
139.18	8.2057
139.20	8.2068
139.22	8.2083
139.24	8.2095
139.25	8.2109
139.27	8.2122
139.28	8.2136
139.30	8.2149
139.32	8.2163
139.33	8.2176
139.35	8.2189
139.37	8.2202
139.38	8.2217
139.40	8.2229
139.42	8.2242
139.44	8.2254
139.45	8.2267
139.47	8.2280
139.48	8.2295
139.50	8.2307
139.52	8.2320
139.53	8.2334
139.55	8.2349
139.57	8.2364
139.58	8.2376
139.60	8.2389
139.62	8.2402
139.63	8.2416
139.65	8.2431
139.67	8.2444
139.69	8.2459
139.70	8.2472
139.72	8.2487
139.73	8.2500
139.75	8.2514
139.77	8.2530
139.78	8.2542
139.80	8.2557
139.82	8.2571
139.83	8.2583
139.85	8.2598
139.87	8.2611
139.89	8.2624
139.90	8.2637
139.92	8.2649
139.94	8.2661
139.95	8.2675
139.97	8.2689
139.98	8.2700
140.00	8.2715
140.02	8.2728
140.04	8.2742
140.05	8.2755
140.07	8.2768
140.08	8.2779
140.10	8.2793
140.12	8.2807
140.14	8.2819
140.15	8.2831
140.17	8.2845
140.18	8.2856
140.20	8.2870
140.22	8.2883
140.24	8.2894
140.26	8.2909
140.27	8.2924
140.29	8.2937
140.30	8.2952
140.32	8.2965
140.33	8.2978
140.35	8.2992
140.37	8.3005
140.38	8.3018
140.40	8.3032
140.42	8.3044
140.44	8.3055
140.45	8.3070
140.47	8.3082
140.48	8.3096
140.50	8.3111
140.52	8.3125
140.53	8.3139
140.55	8.3155
140.57	8.3169
140.59	8.3179
140.60	8.3194
140.62	8.3207
140.64	8.3220
140.65	8.3233
140.67	8.3248
140.68	8.3261
140.70	8.3276
140.72	8.3291
140.74	8.3306
140.75	8.3320
140.77	8.3335
140.79	8.3349
140.80	8.3365
140.82	8.3380
140.84	8.3394
140.85	8.3408
140.87	8.3423
140.89	8.3437
140.90	8.3451
140.92	8.3464
140.94	8.3479
140.95	8.3495
140.97	8.3510
140.99	8.3525
141.00	8.3542
141.02	8.3555
141.04	8.3568
141.06	8.3582
141.07	8.3597
141.09	8.3611
141.10	8.3625
141.12	8.3640
141.14	8.3653
141.15	8.3667
141.17	8.3682
141.19	8.3694
141.20	8.3709
141.22	8.3725
141.24	8.3738
141.25	8.3754
141.27	8.3767
141.29	8.3782
141.30	8.3795
141.32	8.3809
141.34	8.3823
141.35	8.3834
141.37	8.3850
141.39	8.3862
141.40	8.3875
141.42	8.3888
141.44	8.3900
141.45	8.3914
141.47	8.3929
141.49	8.3942
141.50	8.3959
141.52	8.3974
141.54	8.3987
141.55	8.4003
141.57	8.4017
141.58	8.4034
141.60	8.4049
141.62	8.4062
141.64	8.4075
141.65	8.4091
141.67	8.4105
141.69	8.4119
141.70	8.4133
141.72	8.4150
141.74	8.4164
141.75	8.4181
141.77	8.4197
141.79	8.4210
141.80	8.4224
141.82	8.4239
141.84	8.4257
141.85	8.4270
141.87	8.4286
141.89	8.4299
141.90	8.4313
141.92	8.4328
141.93	8.4343
141.95	8.4358
141.97	8.4372
141.99	8.4388
142.00	8.4402
142.02	8.4418
142.04	8.4432
142.05	8.4446
142.07	8.4459
142.08	8.4475
142.10	8.4486
142.12	8.4499
142.14	8.4507
142.15	8.4519
142.17	8.4532
142.18	8.4545
142.20	8.4559
142.22	8.4573
142.24	8.4586
142.25	8.4598
142.27	8.4610
142.29	8.4625
142.30	8.4636
142.32	8.4649
142.34	8.4662
142.35	8.4674
142.37	8.4687
142.38	8.4699
142.40	8.4711
142.42	8.4723
142.43	8.4737
142.45	8.4751
142.47	8.4765
142.48	8.4775
142.50	8.4789
142.52	8.4803
142.54	8.4817
142.56	8.4832
142.57	8.4845
142.59	8.4858
142.60	8.4873
142.62	8.4884
142.64	8.4896
142.65	8.4911
142.67	8.4926
142.69	8.4940
142.70	8.4955
142.72	8.4970
142.73	8.4985
142.75	8.4999
142.77	8.5013
142.79	8.5027
142.80	8.5040
142.82	8.5054
142.84	8.5067
142.85	8.5081
142.87	8.5096
142.89	8.5111
142.90	8.5125
142.92	8.5140
142.93	8.5154
142.95	8.5170
142.97	8.5185
142.99	8.5199
143.00	8.5213
143.02	8.5229
143.04	8.5244
143.05	8.5258
143.07	8.5274
143.08	8.5287
143.10	8.5303
143.12	8.5317
143.13	8.5330
143.15	8.5345
143.17	8.5360
143.19	8.5376
143.20	8.5391
143.22	8.5407
143.24	8.5424
143.25	8.5438
143.28	8.5452
143.29	8.5465
143.30	8.5480
143.32	8.5496
143.34	8.5510
143.35	8.5524
143.37	8.5538
143.39	8.5553
143.40	8.5568
143.42	8.5585
143.43	8.5599
143.45	8.5613
143.47	8.5627
143.49	8.5643
143.50	8.5658
143.52	8.5673
143.53	8.5685
143.55	8.5699
143.57	8.5715
143.59	8.5730
143.60	8.5743
143.62	8.5757
143.64	8.5772
143.65	8.5786
143.68	8.5803
143.69	8.5816
143.70	8.5832
143.72	8.5847
143.74	8.5862
143.75	8.5876
143.77	8.5890
143.78	8.5905
143.80	8.5919
143.82	8.5932
143.84	8.5945
143.85	8.5960
143.87	8.5973
143.89	8.5989
143.90	8.6004
143.92	8.6018
143.93	8.6032
143.95	8.6048
143.97	8.6062
143.98	8.6076
144.00	8.6089
144.02	8.6103
144.04	8.6116
144.05	8.6130
144.07	8.6144
144.08	8.6158
144.10	8.6174
144.12	8.6189
144.14	8.6203
144.15	8.6216
144.17	8.6230
144.19	8.6243
144.20	8.6258
144.22	8.6273
144.24	8.6288
144.25	8.6302
144.27	8.6318
144.29	8.6331
144.30	8.6348
144.32	8.6362
144.34	8.6377
144.35	8.6393
144.37	8.6408
144.39	8.6422
144.40	8.6438
144.42	8.6453
144.44	8.6467
144.45	8.6482
144.47	8.6495
144.49	8.6511
144.50	8.6527
144.52	8.6543
144.54	8.6556
144.55	8.6571
144.57	8.6587
144.59	8.6602
144.60	8.6618
144.62	8.6632
144.64	8.6645
144.65	8.6658
144.67	8.6670
144.68	8.6685
144.70	8.6699
144.72	8.6713
144.73	8.6727
144.75	8.6741
144.77	8.6757
144.79	8.6770
144.80	8.6785
144.82	8.6800
144.84	8.6814
144.85	8.6830
144.87	8.6843
144.89	8.6859
144.90	8.6874
144.92	8.6889
144.93	8.6904
144.95	8.6918
144.97	8.6934
144.98	8.6948
145.00	8.6963
145.02	8.6977
145.03	8.6989
145.05	8.7002
145.07	8.7014
145.08	8.7029
145.10	8.7046
145.12	8.7060
145.14	8.7074
145.15	8.7087
145.17	8.7102
145.18	8.7116
145.20	8.7132
145.22	8.7145
145.23	8.7160
145.25	8.7175
145.27	8.7187
145.28	8.7203
145.30	8.7216
145.31	8.7231
145.33	8.7247
145.35	8.7263
145.36	8.7278
145.38	8.7293
145.40	8.7308
145.42	8.7322
145.43	8.7339
145.45	8.7353
145.47	8.7366
145.48	8.7381
145.50	8.7395
145.52	8.7411
145.53	8.7426
145.55	8.7441
145.57	8.7458
145.58	8.7472
145.60	8.7486
145.61	8.7502
145.63	8.7516
145.65	8.7529
145.66	8.7541
145.68	8.7554
145.69	8.7569
145.71	8.7584
145.73	8.7600
145.75	8.7615
145.76	8.7628
145.78	8.7643
145.80	8.7658
145.81	8.7672
145.83	8.7686
145.85	8.7700
145.86	8.7714
145.88	8.7728
145.90	8.7741
145.91	8.7754
145.93	8.7769
145.94	8.7783
145.96	8.7797
145.98	8.7812
146.00	8.7827
146.01	8.7840
146.03	8.7853
146.05	8.7867
146.06	8.7879
146.08	8.7891
146.09	8.7907
146.11	8.7922
146.13	8.7935
146.15	8.7949
146.17	8.7964
146.18	8.7979
146.19	8.7993
146.21	8.8006
146.23	8.8020
146.25	8.8034
146.26	8.8047
146.28	8.8060
146.30	8.8076
146.31	8.8086
146.33	8.8103
146.34	8.8116
146.36	8.8130
146.38	8.8145
146.40	8.8158
146.41	8.8172
146.43	8.8187
146.44	8.8201
146.46	8.8214
146.48	8.8228
146.50	8.8242
146.51	8.8255
146.53	8.8270
146.55	8.8286
146.56	8.8302
146.58	8.8316
146.59	8.8330
146.61	8.8345
146.63	8.8361
146.64	8.8377
146.66	8.8391
146.68	8.8405
146.69	8.8421
146.71	8.8434
146.72	8.8452
146.74	8.8466
146.76	8.8483
146.78	8.8496
146.79	8.8512
146.81	8.8527
146.83	8.8541
146.84	8.8557
146.86	8.8572
146.88	8.8585
146.89	8.8601
146.91	8.8614
146.93	8.8628
146.94	8.8643
146.96	8.8656
146.98	8.8673
147.00	8.8688
147.01	8.8702
147.03	8.8716
147.04	8.8731
147.06	8.8746
147.08	8.8759
147.09	8.8775
147.11	8.8789
147.13	8.8803
147.14	8.8817
147.16	8.8834
147.18	8.8850
147.19	8.8865
147.21	8.8877
147.23	8.8892
147.25	8.8909
147.26	8.8925
147.28	8.8939
147.29	8.8954
147.31	8.8966
147.33	8.8982
147.35	8.8998
147.36	8.9012
147.38	8.9029
147.39	8.9045
147.41	8.9060
147.43	8.9075
147.44	8.9087
147.46	8.9101
147.47	8.9117
147.49	8.9132
147.51	8.9146
147.53	8.9163
147.55	8.9178
147.56	8.9194
147.58	8.9210
147.59	8.9223
147.61	8.9237
147.63	8.9252
147.64	8.9267
147.66	8.9282
147.68	8.9298
147.69	8.9313
147.71	8.9328
147.72	8.9343
147.74	8.9357
147.76	8.9374
147.78	8.9388
147.79	8.9403
147.81	8.9419
147.83	8.9433
147.84	8.9447
147.86	8.9461
147.88	8.9475
147.90	8.9490
147.91	8.9502
147.93	8.9517
147.94	8.9530
147.96	8.9545
147.97	8.9559
147.99	8.9572
148.01	8.9584
148.03	8.9599
148.04	8.9613
148.06	8.9626
148.08	8.9639
148.09	8.9653
148.11	8.9666
148.13	8.9681
148.15	8.9697
148.16	8.9711
148.18	8.9727
148.19	8.9743
148.21	8.9756
148.23	8.9770
148.24	8.9785
148.26	8.9799
148.28	8.9812
148.29	8.9827
148.30	8.9840
148.32	8.9855
148.34	8.9871
148.36	8.9886
148.38	8.9900
148.40	8.9917
148.41	8.9934
148.43	8.9948
148.44	8.9962
148.46	8.9976
148.47	8.9989
148.49	9.0003
148.51	9.0018
148.53	9.0033
148.54	9.0049
148.55	9.0063
148.57	9.0080
148.59	9.0095
148.60	9.0108
148.63	9.0122
148.64	9.0137
148.66	9.0152
148.68	9.0166
148.69	9.0182
148.70	9.0194
148.72	9.0208
148.74	9.0224
148.75	9.0237
148.78	9.0252
148.79	9.0267
148.80	9.0281
148.82	9.0295
148.84	9.0309
148.86	9.0323
148.88	9.0335
148.89	9.0350
148.91	9.0363
148.93	9.0376
148.94	9.0390
148.96	9.0404
148.97	9.0419
148.99	9.0434
149.01	9.0448
149.02	9.0461
149.04	9.0476
149.05	9.0491
149.07	9.0505
149.09	9.0519
149.10	9.0531
149.13	9.0545
149.14	9.0559
149.16	9.0573
149.18	9.0588
149.19	9.0603
149.20	9.0619
149.22	9.0634
149.24	9.0649
149.26	9.0665
149.28	9.0679
149.29	9.0693
149.31	9.0708
149.32	9.0723
149.34	9.0737
149.35	9.0752
149.38	9.0767
149.39	9.0781
149.41	9.0797
149.42	9.0811
149.44	9.0827
149.45	9.0841
149.47	9.0855
149.49	9.0871
149.50	9.0887
149.52	9.0903
149.54	9.0918
149.55	9.0934
149.57	9.0951
149.59	9.0970
149.60	9.0985
149.62	9.1002
149.64	9.1019
149.65	9.1034
149.67	9.1051
149.69	9.1068
149.70	9.1084
149.72	9.1101
149.74	9.1114
149.76	9.1134
149.78	9.1152
149.79	9.1166
149.80	9.1184
149.83	9.1200
149.84	9.1218
149.85	9.1236
149.87	9.1255
149.89	9.1272
149.90	9.1289
149.92	9.1304
149.93	9.1321
149.95	9.1340
149.97	9.1359
149.99	9.1377
150.00	9.1394
150.02	9.1411
150.04	9.1426
150.05	9.1445
150.07	9.1463
150.08	9.1479
150.10	9.1497
150.12	9.1514
150.14	9.1531
150.15	9.1549
150.17	9.1568
150.19	9.1586
150.21	9.1605
150.22	9.1622
150.24	9.1640
150.25	9.1659
150.27	9.1676
150.29	9.1693
150.30	9.1710
150.32	9.1727
150.34	9.1745
150.35	9.1764
150.37	9.1782
150.39	9.1801
150.40	9.1819
150.42	9.1838
150.43	9.1858
150.45	9.1877
150.47	9.1898
150.49	9.1915
150.50	9.1935
150.52	9.1955
150.54	9.1974
150.55	9.1992
150.57	9.2013
150.58	9.2031
150.60	9.2050
150.62	9.2068
150.63	9.2089
150.65	9.2108
150.67	9.2127
150.69	9.2145
150.70	9.2163
150.72	9.2184
150.74	9.2204
150.75	9.2223
150.77	9.2243
150.79	9.2260
150.80	9.2281
150.82	9.2303
150.83	9.2321
150.85	9.2341
150.87	9.2361
150.89	9.2380
150.90	9.2400
150.92	9.2420
150.93	9.2438
150.95	9.2455
150.97	9.2475
150.98	9.2497
151.00	9.2516
151.02	9.2536
151.03	9.2557
151.05	9.2575
151.07	9.2596
151.08	9.2615
151.10	9.2634
151.12	9.2655
151.13	9.2674
151.15	9.2691
151.17	9.2713
151.18	9.2732
151.19	9.2752
151.22	9.2772
151.23	9.2792
151.25	9.2814
151.27	9.2835
151.28	9.2854
151.30	9.2874
151.32	9.2893
151.33	9.2912
151.35	9.2931
151.37	9.2951
151.38	9.2968
151.40	9.2990
151.42	9.3008
151.43	9.3028
151.44	9.3048
151.47	9.3066
151.48	9.3084
151.50	9.3104
151.51	9.3122
151.53	9.3144
151.55	9.3162
151.57	9.3182
151.58	9.3202
151.60	9.3222
151.61	9.3241
151.63	9.3261
151.65	9.3279
151.67	9.3299
151.68	9.3320
151.70	9.3340
151.72	9.3357
151.73	9.3375
151.75	9.3396
151.77	9.3415
151.78	9.3434
151.80	9.3456
151.81	9.3475
151.83	9.3496
151.85	9.3516
151.87	9.3535
151.88	9.3553
151.90	9.3574
151.91	9.3592
151.93	9.3612
151.95	9.3634
151.97	9.3652
151.98	9.3671
151.99	9.3689
152.01	9.3710
152.03	9.3731
152.05	9.3752
152.06	9.3771
152.08	9.3792
152.10	9.3812
152.11	9.3833
152.13	9.3851
152.15	9.3872
152.16	9.3893
152.18	9.3916
152.20	9.3939
152.21	9.3962
152.23	9.3982
152.25	9.4006
152.26	9.4029
152.28	9.4046
152.30	9.4066
152.32	9.4090
152.33	9.4110
152.35	9.4132
152.36	9.4153
152.38	9.4177
152.40	9.4200
152.41	9.4224
152.43	9.4246
152.44	9.4269
152.46	9.4294
152.48	9.4316
152.50	9.4337
152.51	9.4360
152.53	9.4382
152.55	9.4402
152.56	9.4424
152.58	9.4444
152.59	9.4466
152.61	9.4490
152.63	9.4512
152.65	9.4536
152.66	9.4558
152.68	9.4581
152.69	9.4603
152.70	9.4626
152.72	9.4647
152.74	9.4667
152.76	9.4688
152.78	9.4709
152.79	9.4730
152.81	9.4753
152.83	9.4776
152.85	9.4798
152.86	9.4823
152.88	9.4843
152.89	9.4864
152.91	9.4888
152.93	9.4909
152.94	9.4934
152.96	9.4956
152.97	9.4978
153.00	9.5002
153.01	9.5025
153.03	9.5047
153.04	9.5069
153.06	9.5091
153.08	9.5116
153.09	9.5139
153.11	9.5162
153.13	9.5183
153.14	9.5207
153.16	9.5228
153.18	9.5253
153.19	9.5276
153.21	9.5300
153.22	9.5323
153.24	9.5347
153.26	9.5371
153.28	9.5395
153.29	9.5418
153.31	9.5441
153.33	9.5461
153.34	9.5482
153.36	9.5505
153.37	9.5525
153.39	9.5547
153.41	9.5567
153.43	9.5587
153.44	9.5606
153.46	9.5626
153.47	9.5644
153.49	9.5661
153.51	9.5683
153.53	9.5702
153.54	9.5722
153.55	9.5741
153.57	9.5761
153.59	9.5781
153.61	9.5803
153.62	9.5824
153.64	9.5847
153.66	9.5868
153.67	9.5890
153.69	9.5913
153.71	9.5938
153.72	9.5959
153.74	9.5984
153.76	9.6007
153.78	9.6028
153.79	9.6054
153.81	9.6078
153.83	9.6103
153.84	9.6130
153.86	9.6154
153.88	9.6180
153.89	9.6204
153.91	9.6228
153.92	9.6252
153.94	9.6276
153.95	9.6299
153.97	9.6323
153.99	9.6346
154.00	9.6372
154.03	9.6397
154.04	9.6423
154.05	9.6447
154.08	9.6473
154.09	9.6497
154.10	9.6521
154.12	9.6543
154.14	9.6569
154.15	9.6592
154.17	9.6613
154.19	9.6640
154.20	9.6668
154.22	9.6692
154.24	9.6717
154.25	9.6742
154.27	9.6767
154.29	9.6791
154.31	9.6817
154.32	9.6840
154.34	9.6862
154.35	9.6887
154.37	9.6911
154.39	9.6934
154.40	9.6961
154.42	9.6986
154.44	9.7011
154.45	9.7035
154.47	9.7059
154.49	9.7083
154.50	9.7108
154.52	9.7134
154.54	9.7158
154.55	9.7182
154.57	9.7207
154.59	9.7231
154.60	9.7256
154.62	9.7281
154.64	9.7307
154.65	9.7333
154.67	9.7359
154.69	9.7383
154.70	9.7409
154.72	9.7434
154.74	9.7459
154.75	9.7484
154.77	9.7507
154.78	9.7534
154.80	9.7556
154.82	9.7581
154.84	9.7607
154.85	9.7633
154.87	9.7660
154.89	9.7686
154.90	9.7711
154.92	9.7737
154.93	9.7763
154.95	9.7785
154.97	9.7810
154.98	9.7836
155.00	9.7860
155.02	9.7886
155.03	9.7911
155.05	9.7938
155.06	9.7962
155.08	9.7989
155.10	9.8013
155.12	9.8037
155.14	9.8062
155.15	9.8087
155.17	9.8114
155.18	9.8142
155.20	9.8165
155.22	9.8192
155.23	9.8220
155.25	9.8245
155.27	9.8271
155.28	9.8296
155.30	9.8321
155.31	9.8346
155.33	9.8372
155.35	9.8398
155.37	9.8425
155.38	9.8451
155.40	9.8477
155.42	9.8505
155.43	9.8534
155.45	9.8561
155.47	9.8589
155.48	9.8615
155.50	9.8643
155.52	9.8669
155.53	9.8693
155.55	9.8720
155.57	9.8744
155.58	9.8770
155.60	9.8795
155.62	9.8821
155.63	9.8847
155.65	9.8872
155.67	9.8900
155.68	9.8929
155.70	9.8953
155.72	9.8978
155.73	9.9009
155.75	9.9035
155.77	9.9063
155.78	9.9089
155.80	9.9117
155.82	9.9144
155.83	9.9174
155.85	9.9204
155.86	9.9233
155.88	9.9262
155.90	9.9291
155.92	9.9320
155.93	9.9349
155.95	9.9378
155.97	9.9406
155.98	9.9435
156.00	9.9465
156.01	9.9495
156.03	9.9525
156.05	9.9557
156.07	9.9588
156.08	9.9616
156.10	9.9649
156.12	9.9679
156.13	9.9709
156.15	9.9739
156.17	9.9771
156.18	9.9802
156.19	9.9832
156.21	9.9862
156.23	9.9894
156.25	9.9922
156.27	9.9952
156.28	9.9983
156.30	10.0015
156.32	10.0045
156.33	10.0076
156.35	10.0110
156.37	10.0140
156.38	10.0171
156.40	10.0203
156.41	10.0235
156.43	10.0265
156.45	10.0295
156.47	10.0330
156.48	10.0360
156.50	10.0389
156.52	10.0421
156.53	10.0452
156.55	10.0480
156.56	10.0512
156.58	10.0546
156.60	10.0576
156.61	10.0608
156.63	10.0638
156.65	10.0669
156.67	10.0700
156.68	10.0732
156.70	10.0764
156.71	10.0795
156.73	10.0826
156.75	10.0859
156.77	10.0887
156.78	10.0920
156.80	10.0949
156.82	10.0982
156.83	10.1014
156.85	10.1045
156.87	10.1077
156.88	10.1111
156.90	10.1142
156.92	10.1172
156.93	10.1204
156.94	10.1235
156.96	10.1267
156.98	10.1297
157.00	10.1330
157.01	10.1361
157.03	10.1394
157.05	10.1426
157.06	10.1459
157.08	10.1492
157.10	10.1525
157.11	10.1558
157.13	10.1592
157.15	10.1625
157.17	10.1659
157.18	10.1693
157.20	10.1723
157.21	10.1758
157.23	10.1791
157.25	10.1825
157.27	10.1858
157.28	10.1892
157.30	10.1925
157.31	10.1957
157.33	10.1993
157.35	10.2022
157.37	10.2058
157.38	10.2091
157.40	10.2123
157.42	10.2158
157.43	10.2192
157.44	10.2225
157.46	10.2260
157.48	10.2294
157.50	10.2329
157.51	10.2362
157.53	10.2398
157.55	10.2431
157.56	10.2466
157.58	10.2504
157.60	10.2537
157.62	10.2573
157.63	10.2609
157.65	10.2644
157.66	10.2680
157.68	10.2715
157.69	10.2751
157.71	10.2787
157.73	10.2823
157.75	10.2856
157.76	10.2890
157.78	10.2924
157.80	10.2959
157.81	10.2998
157.83	10.3033
157.85	10.3066
157.86	10.3103
157.88	10.3138
157.89	10.3173
157.91	10.3207
157.93	10.3243
157.94	10.3278
157.96	10.3313
157.97	10.3349
157.99	10.3385
158.01	10.3423
158.03	10.3461
158.04	10.3496
158.06	10.3534
158.08	10.3573
158.10	10.3610
158.11	10.3647
158.13	10.3686
158.15	10.3726
158.17	10.3763
158.18	10.3801
158.20	10.3841
158.21	10.3882
158.23	10.3924
158.25	10.3964
158.26	10.4004
158.28	10.4046
158.30	10.4089
158.31	10.4131
158.33	10.4173
158.35	10.4215
158.36	10.4255
158.38	10.4294
158.40	10.4336
158.41	10.4378
158.43	10.4422
158.44	10.4464
158.46	10.4508
158.48	10.4550
158.50	10.4593
158.51	10.4635
158.53	10.4680
158.55	10.4721
158.56	10.4764
158.58	10.4805
158.59	10.4848
158.61	10.4892
158.63	10.4935
158.64	10.4977
158.66	10.5022
158.68	10.5068
158.69	10.5111
158.71	10.5154
158.73	10.5199
158.75	10.5242
158.76	10.5287
158.78	10.5332
158.79	10.5374
158.81	10.5418
158.83	10.5465
158.84	10.5509
158.86	10.5555
158.88	10.5602
158.90	10.5645
158.91	10.5690
158.93	10.5735
158.94	10.5780
158.96	10.5825
158.97	10.5869
158.99	10.5914
159.01	10.5959
159.03	10.6006
159.05	10.6052
159.06	10.6097
159.08	10.6143
159.10	10.6191
159.11	10.6237
159.13	10.6283
159.15	10.6330
159.16	10.6377
159.18	10.6423
159.19	10.6471
159.21	10.6519
159.22	10.6567
159.24	10.6615
159.26	10.6662
159.28	10.6711
159.29	10.6758
159.31	10.6805
159.33	10.6853
159.34	10.6901
159.36	10.6948
159.38	10.6994
159.39	10.7042
159.40	10.7090
159.43	10.7136
159.44	10.7186
159.46	10.7235
159.47	10.7284
159.50	10.7332
159.51	10.7382
159.53	10.7430
159.54	10.7479
159.56	10.7529
159.58	10.7579
159.59	10.7629
159.61	10.7677
159.63	10.7727
159.65	10.7777
159.66	10.7826
159.68	10.7878
159.69	10.7929
159.71	10.7981
159.72	10.8033
159.74	10.8084
159.76	10.8136
159.78	10.8187
159.79	10.8239
159.81	10.8290
159.83	10.8342
159.84	10.8395
159.86	10.8448
159.88	10.8500
159.89	10.8553
159.91	10.8607
159.93	10.8658
159.94	10.8708
159.95	10.8754
159.97	10.8799
159.99	10.8842
160.01	10.8881
160.02	10.8921
160.04	10.8960
160.06	10.9002
160.08	10.9045
160.09	10.9088
160.10	10.9132
160.12	10.9178
160.14	10.9225
160.16	10.9276
160.18	10.9325
160.19	10.9374
160.21	10.9427
160.22	10.9477
160.24	10.9531
160.25	10.9587
160.28	10.9640
160.29	10.9696
160.31	10.9750
160.33	10.9802
160.34	10.9858
160.36	10.9915
160.38	10.9970
160.39	11.0023
160.41	11.0077
160.43	11.0129
160.44	11.0183
160.46	11.0240
160.47	11.0296
160.49	11.0354
160.50	11.0411
160.53	11.0466
160.54	11.0524
160.56	11.0584
160.58	11.0639
160.59	11.0698
160.61	11.0758
160.63	11.0815
160.64	11.0876
160.65	11.0935
160.67	11.0994
160.69	11.1059
160.71	11.1119
160.72	11.1176
160.74	11.1237
160.76	11.1297
160.77	11.1355
160.79	11.1415
160.81	11.1476
160.83	11.1536
160.84	11.1597
160.85	11.1657
160.87	11.1718
160.89	11.1780
160.90	11.1840
160.93	11.1903
160.94	11.1964
160.95	11.2025
160.97	11.2088
160.99	11.2147
161.00	11.2207
161.02	11.2270
161.03	11.2329
161.05	11.2391
161.07	11.2453
161.09	11.2516
161.11	11.2580
161.13	11.2641
161.14	11.2703
161.16	11.2763
161.18	11.2826
161.19	11.2885
161.21	11.2944
161.22	11.3005
161.24	11.3065
161.25	11.3127
161.27	11.3187
161.29	11.3246
161.31	11.3308
161.32	11.3368
161.34	11.3429
161.36	11.3491
161.37	11.3547
161.39	11.3607
161.40	11.3665
161.42	11.3723
161.44	11.3783
161.45	11.3841
161.47	11.3899
161.49	11.3958
161.50	11.4017
161.52	11.4075
161.54	11.4133
161.55	11.4191
161.57	11.4249
161.59	11.4306
161.60	11.4364
161.62	11.4422
161.64	11.4479
161.65	11.4537
161.67	11.4596
161.69	11.4657
161.70	11.4716
161.72	11.4778
161.74	11.4837
161.76	11.4895
161.77	11.4955
161.79	11.5013
161.80	11.5075
161.82	11.5133
161.84	11.5191
161.85	11.5252
161.87	11.5313
161.88	11.5374
161.90	11.5436
161.92	11.5494
161.94	11.5557
161.96	11.5617
161.97	11.5675
161.99	11.5736
162.00	11.5796
162.02	11.5855
162.04	11.5915
162.05	11.5974
162.08	11.6034
162.09	11.6096
162.10	11.6156
162.12	11.6215
162.14	11.6275
162.15	11.6335
162.17	11.6395
162.19	11.6454
162.20	11.6514
162.22	11.6572
162.23	11.6631
162.25	11.6691
162.27	11.6749
162.29	11.6808
162.30	11.6869
162.32	11.6926
162.34	11.6987
162.35	11.7047
162.37	11.7103
162.39	11.7162
162.40	11.7219
162.42	11.7277
162.44	11.7333
162.45	11.7390
162.47	11.7448
162.49	11.7507
162.50	11.7566
162.51	11.7622
162.53	11.7678
162.55	11.7737
162.57	11.7791
162.58	11.7849
162.60	11.7906
162.61	11.7961
162.63	11.8018
162.65	11.8075
162.67	11.8131
162.68	11.8188
162.70	11.8244
162.72	11.8302
162.73	11.8360
162.75	11.8415
162.77	11.8472
162.78	11.8530
162.80	11.8588
162.82	11.8645
162.83	11.8702
162.85	11.8762
162.87	11.8819
162.89	11.8877
162.90	11.8938
162.91	11.8995
162.93	11.9054
162.94	11.9113
162.96	11.9172
162.98	11.9233
163.00	11.9293
163.02	11.9353
163.03	11.9411
163.05	11.9473
163.07	11.9533
163.08	11.9595
163.10	11.9658
163.11	11.9716
163.13	11.9774
163.15	11.9836
163.17	11.9894
163.18	11.9954
163.20	12.0014
163.22	12.0073
163.23	12.0134
163.25	12.0192
163.27	12.0252
163.28	12.0312
163.30	12.0370
163.32	12.0429
163.33	12.0490
163.35	12.0549
163.36	12.0608
163.38	12.0665
163.40	12.0723
163.41	12.0779
163.43	12.0834
163.45	12.0891
163.47	12.0947
163.48	12.1003
163.50	12.1061
163.51	12.1115
163.53	12.1173
163.55	12.1229
163.56	12.1282
163.58	12.1338
163.60	12.1392
163.62	12.1446
163.63	12.1499
163.65	12.1551
163.66	12.1602
163.68	12.1654
163.70	12.1706
163.71	12.1757
163.73	12.1808
163.75	12.1859
163.76	12.1907
163.78	12.1958
163.80	12.2007
163.81	12.2053
163.83	12.2103
163.85	12.2152
163.86	12.2199
163.88	12.2245
163.89	12.2291
163.91	12.2340
163.93	12.2387
163.94	12.2433
163.96	12.2477
163.98	12.2522
164.00	12.2569
164.02	12.2613
164.03	12.2657
164.05	12.2701
164.07	12.2742
164.08	12.2786
164.10	12.2830
164.11	12.2871
164.13	12.2914
164.14	12.2958
164.16	12.2999
164.18	12.3038
164.19	12.3077
164.21	12.3118
164.22	12.3159
164.24	12.3199
164.26	12.3238
164.28	12.3277
164.29	12.3315
164.31	12.3354
164.33	12.3389
164.35	12.3429
164.36	12.3465
164.38	12.3503
164.40	12.3540
164.41	12.3575
164.43	12.3609
164.44	12.3645
164.47	12.3680
164.48	12.3716
164.50	12.3752
164.51	12.3784
164.53	12.3816
164.55	12.3848
164.56	12.3882
164.58	12.3914
164.60	12.3945
164.61	12.3975
164.63	12.4006
164.65	12.4039
164.66	12.4067
164.68	12.4098
164.69	12.4127
164.71	12.4156
164.73	12.4186
164.75	12.4212
164.76	12.4237
164.78	12.4265
164.80	12.4292
164.81	12.4319
164.83	12.4346
164.85	12.4371
164.86	12.4397
164.88	12.4421
164.89	12.4447
164.91	12.4471
164.93	12.4496
164.94	12.4518
164.96	12.4541
164.97	12.4566
164.99	12.4587
165.01	12.4609
165.03	12.4631
165.04	12.4654
165.06	12.4674
165.08	12.4694
165.10	12.4716
165.11	12.4737
165.13	12.4757
165.15	12.4777
165.16	12.4796
165.18	12.4814
165.19	12.4832
165.21	12.4851
165.23	12.4869
165.25	12.4886
165.26	12.4905
165.28	12.4926
165.29	12.4941
165.31	12.4961
165.33	12.4977
165.34	12.4993
165.36	12.5011
165.38	12.5027
165.40	12.5045
165.41	12.5060
165.43	12.5075
165.44	12.5089
165.46	12.5105
165.48	12.5119
165.50	12.5133
165.51	12.5150
165.53	12.5165
165.54	12.5181
165.56	12.5191
165.58	12.5204
165.59	12.5216
165.61	12.5226
165.63	12.5240
165.65	12.5250
165.66	12.5263
165.68	12.5276
165.69	12.5286
165.71	12.5299
165.73	12.5310
165.74	12.5319
165.76	12.5331
165.78	12.5340
165.79	12.5348
165.81	12.5360
165.83	12.5369
165.85	12.5379
165.86	12.5389
165.88	12.5395
165.89	12.5407
165.91	12.5416
165.93	12.5424
165.94	12.5433
165.96	12.5440
165.97	12.5446
165.99	12.5452
166.01	12.5459
166.03	12.5464
166.04	12.5470
166.06	12.5474
166.08	12.5477
166.09	12.5479
166.11	12.5484
166.13	12.5487
166.14	12.5488
166.16	12.5491
166.18	12.5491
166.19	12.5490
166.21	12.5486
166.23	12.5478
166.24	12.5470
166.25	12.5462
166.28	12.5453
166.30	12.5441
166.31	12.5429
166.33	12.5419
166.34	12.5407
166.36	12.5395
166.38	12.5385
166.39	12.5374
166.41	12.5363
166.42	12.5350
166.44	12.5341
166.46	12.5330
166.47	12.5323
166.49	12.5312
166.51	12.5302
166.52	12.5291
166.54	12.5279
166.56	12.5268
166.58	12.5257
166.59	12.5246
166.61	12.5234
166.63	12.5220
166.64	12.5207
166.66	12.5191
166.68	12.5176
166.69	12.5161
166.71	12.5142
166.72	12.5125
166.74	12.5104
166.76	12.5087
166.78	12.5068
166.79	12.5044
166.80	12.5025
166.83	12.5000
166.84	12.4975
166.86	12.4952
166.88	12.4929
166.89	12.4902
166.91	12.4875
166.93	12.4851
166.94	12.4821
166.96	12.4794
166.97	12.4768
166.99	12.4739
167.01	12.4707
167.03	12.4679
167.04	12.4649
167.06	12.4618
167.08	12.4587
167.09	12.4556
167.11	12.4526
167.13	12.4495
167.14	12.4463
167.16	12.4430
167.18	12.4394
167.19	12.4360
167.21	12.4326
167.22	12.4290
167.24	12.4254
167.25	12.4218
167.27	12.4180
167.29	12.4143
167.31	12.4105
167.33	12.4067
167.34	12.4026
167.35	12.3985
167.38	12.3947
167.40	12.3905
167.41	12.3863
167.42	12.3818
167.44	12.3776
167.46	12.3730
167.47	12.3682
167.49	12.3640
167.51	12.3593
167.53	12.3547
167.54	12.3500
167.56	12.3452
167.58	12.3404
167.59	12.3354
167.61	12.3302
167.62	12.3252
167.64	12.3198
167.66	12.3146
167.68	12.3091
167.69	12.3039
167.71	12.2983
167.72	12.2927
167.74	12.2868
167.76	12.2811
167.77	12.2750
167.79	12.2690
167.81	12.2627
167.83	12.2564
167.84	12.2499
167.86	12.2437
167.88	12.2371
167.89	12.2303
167.91	12.2239
167.93	12.2172
167.94	12.2105
167.96	12.2034
167.97	12.1966
167.99	12.1892
168.01	12.1820
168.03	12.1747
168.04	12.1672
168.06	12.1595
168.08	12.1523
168.09	12.1444
168.11	12.1365
168.13	12.1286
168.14	12.1208
168.16	12.1127
168.18	12.1047
168.19	12.0961
168.20	12.0877
168.22	12.0793
168.24	12.0707
168.26	12.0620
168.28	12.0532
168.29	12.0442
168.30	12.0354
168.33	12.0261
168.34	12.0173
168.36	12.0082
168.38	11.9992
168.39	11.9897
168.41	11.9801
168.43	11.9704
168.44	11.9606
168.46	11.9510
168.47	11.9412
168.50	11.9312
168.51	11.9213
168.53	11.9114
168.54	11.9012
168.56	11.8910
168.58	11.8806
168.60	11.8699
168.61	11.8594
168.63	11.8488
168.64	11.8380
168.66	11.8275
168.68	11.8166
168.69	11.8055
168.71	11.7947
168.73	11.7837
168.75	11.7722
168.76	11.7610
168.78	11.7498
168.80	11.7384
168.81	11.7268
168.83	11.7152
168.84	11.7036
168.86	11.6919
168.88	11.6802
168.90	11.6682
168.91	11.6562
168.93	11.6440
168.94	11.6319
168.95	11.6196
168.97	11.6074
168.99	11.5947
169.00	11.5824
169.03	11.5697
169.05	11.5571
169.06	11.5444
169.08	11.5316
169.09	11.5186
169.11	11.5058
169.13	11.4929
169.14	11.4799
169.16	11.4668
169.18	11.4537
169.19	11.4403
169.20	11.4271
169.22	11.4140
169.24	11.4007
169.26	11.3873
169.28	11.3738
169.29	11.3606
169.31	11.3472
169.33	11.3339
169.34	11.3203
169.36	11.3069
169.38	11.2934
169.39	11.2798
169.41	11.2662
169.42	11.2527
169.44	11.2389
169.45	11.2253
169.47	11.2118
169.49	11.1982
169.51	11.1845
169.53	11.1713
169.55	11.1575
169.56	11.1441
169.58	11.1303
169.59	11.1164
169.60	11.1028
169.63	11.0891
169.64	11.0754
169.65	11.0617
169.68	11.0485
169.69	11.0349
169.71	11.0213
169.72	11.0080
169.74	10.9945
169.76	10.9807
169.78	10.9673
169.79	10.9538
169.81	10.9404
169.83	10.9268
169.84	10.9135
169.86	10.9002
169.88	10.8871
169.89	10.8736
169.91	10.8607
169.92	10.8476
169.94	10.8346
169.95	10.8217
169.97	10.8089
169.99	10.7960
170.01	10.7833
170.03	10.7701
170.04	10.7576
170.05	10.7450
170.08	10.7325
170.09	10.7205
170.11	10.7085
170.13	10.6964
170.15	10.6843
170.16	10.6723
170.18	10.6604
170.19	10.6487
170.21	10.6371
170.22	10.6255
170.24	10.6138
170.26	10.6026
170.28	10.5914
170.29	10.5805
170.31	10.5694
170.33	10.5587
170.34	10.5481
170.36	10.5374
170.38	10.5268
170.39	10.5167
170.41	10.5062
170.43	10.4958
170.44	10.4857
170.46	10.4758
170.47	10.4663
170.50	10.4568
170.50	10.4474
170.53	10.4381
170.54	10.4290
170.55	10.4200
170.57	10.4110
170.59	10.4019
170.60	10.3934
170.62	10.3847
170.64	10.3762
170.66	10.3679
170.67	10.3597
170.69	10.3516
170.70	10.3440
170.72	10.3363
170.74	10.3289
170.76	10.3215
170.78	10.3142
170.79	10.3069
170.81	10.3000
170.83	10.2931
170.84	10.2862
170.85	10.2795
170.88	10.2730
170.89	10.2667
170.91	10.2606
170.92	10.2545
170.94	10.2484
170.96	10.2426
170.97	10.2369
170.99	10.2314
171.00	10.2258
171.02	10.2204
171.04	10.2151
171.06	10.2103
171.08	10.2054
171.09	10.2009
171.11	10.1963
171.13	10.1916
171.14	10.1872
171.16	10.1829
171.18	10.1786
171.19	10.1747
171.21	10.1705
171.22	10.1665
171.24	10.1629
171.26	10.1592
171.28	10.1555
171.29	10.1522
171.30	10.1488
171.32	10.1457
171.34	10.1424
171.36	10.1394
171.37	10.1363
171.39	10.1334
171.40	10.1307
171.43	10.1279
171.44	10.1253
171.45	10.1228
171.47	10.1203
171.49	10.1180
171.51	10.1159
171.52	10.1136
171.54	10.1116
171.55	10.1095
171.57	10.1075
171.59	10.1055
171.61	10.1036
171.63	10.1015
171.64	10.0999
171.66	10.0984
171.68	10.0966
171.69	10.0949
171.70	10.0935
171.72	10.0919
171.74	10.0905
171.76	10.0893
171.78	10.0880
171.79	10.0864
171.81	10.0850
171.83	10.0837
171.84	10.0827
171.85	10.0816
171.88	10.0805
171.89	10.0796
171.90	10.0786
171.93	10.0776
171.94	10.0770
171.96	10.0762
171.97	10.0754
171.98	10.0746
172.00	10.0736
172.03	10.0728
172.04	10.0722
172.06	10.0715
172.08	10.0710
172.09	10.0706
172.11	10.0704
172.12	10.0697
172.14	10.0694
172.15	10.0692
172.17	10.0690
172.19	10.0687
172.20	10.0686
172.22	10.0683
172.24	10.0681
172.25	10.0680
172.27	10.0678
172.29	10.0678
172.30	10.0680
172.32	10.0679
172.34	10.0680
172.35	10.0681
172.37	10.0682
172.39	10.0685
172.40	10.0687
172.42	10.0687
172.43	10.0689
172.45	10.0692
172.47	10.0694
172.49	10.0699
172.50	10.0702
172.52	10.0705
172.54	10.0710
172.55	10.0713
172.57	10.0716
172.59	10.0719
172.60	10.0727
172.62	10.0730
172.64	10.0734
172.65	10.0741
172.68	10.0747
172.69	10.0754
172.70	10.0762
172.72	10.0769
172.74	10.0775
172.75	10.0783
172.77	10.0789
172.79	10.0800
172.80	10.0807
172.82	10.0814
172.84	10.0825
172.85	10.0833
172.87	10.0841
172.89	10.0852
172.90	10.0860
172.92	10.0870
172.94	10.0880
172.95	10.0891
172.97	10.0900
172.98	10.0910
173.00	10.0920
173.02	10.0930
173.04	10.0941
173.05	10.0951
173.07	10.0964
173.09	10.0974
173.10	10.0987
173.12	10.0998
173.14	10.1010
173.15	10.1021
173.17	10.1031
173.18	10.1043
173.19	10.1054
173.22	10.1065
173.23	10.1075
173.25	10.1087
173.27	10.1098
173.29	10.1112
173.30	10.1122
173.32	10.1131
173.34	10.1142
173.35	10.1153
173.37	10.1163
173.39	10.1175
173.40	10.1185
173.42	10.1194
173.43	10.1206
173.45	10.1218
173.47	10.1227
173.49	10.1237
173.50	10.1248
173.52	10.1258
173.54	10.1271
173.55	10.1281
173.57	10.1290
173.59	10.1299
173.60	10.1312
173.62	10.1320
173.63	10.1333
173.65	10.1342
173.67	10.1354
173.68	10.1369
173.70	10.1380
173.72	10.1393
173.73	10.1403
173.75	10.1414
173.77	10.1424
173.79	10.1437
173.80	10.1449
173.82	10.1459
173.83	10.1472
173.85	10.1484
173.87	10.1495
173.88	10.1506
173.90	10.1517
173.92	10.1531
173.94	10.1542
173.95	10.1554
173.97	10.1565
173.99	10.1579
174.00	10.1592
174.02	10.1604
174.03	10.1615
174.05	10.1629
174.07	10.1640
174.09	10.1653
174.10	10.1664
174.12	10.1675
174.14	10.1689
174.15	10.1701
174.16	10.1713
174.18	10.1726
174.20	10.1736
174.22	10.1746
174.23	10.1758
174.25	10.1768
174.26	10.1781
174.28	10.1794
174.30	10.1807
174.32	10.1819
174.33	10.1833
174.35	10.1847
174.37	10.1856
174.39	10.1870
174.40	10.1880
174.42	10.1889
174.43	10.1901
174.45	10.1916
174.47	10.1927
174.48	10.1941
174.50	10.1955
174.51	10.1967
174.54	10.1983
174.55	10.1995
174.57	10.2007
174.58	10.2021
174.60	10.2034
174.62	10.2047
174.63	10.2061
174.65	10.2075
174.67	10.2088
174.68	10.2101
174.70	10.2115
174.72	10.2129
174.73	10.2142
174.75	10.2156
174.77	10.2167
174.79	10.2184
174.80	10.2198
174.82	10.2211
174.84	10.2226
174.85	10.2240
174.87	10.2256
174.88	10.2269
174.90	10.2282
174.92	10.2295
174.93	10.2311
174.95	10.2325
174.96	10.2339
174.98	10.2351
175.00	10.2365
175.02	10.2378
175.04	10.2390
175.05	10.2405
175.07	10.2416
175.08	10.2432
175.10	10.2442
175.12	10.2454
175.14	10.2468
175.15	10.2478
175.17	10.2490
175.18	10.2503
175.19	10.2514
175.22	10.2525
175.23	10.2536
175.25	10.2551
175.27	10.2564
175.28	10.2576
175.30	10.2589
175.32	10.2602
175.33	10.2617
175.35	10.2629
175.37	10.2641
175.38	10.2656
175.40	10.2670
175.42	10.2683
175.43	10.2696
175.45	10.2709
175.47	10.2723
175.48	10.2736
175.50	10.2750
175.51	10.2763
175.53	10.2777
175.55	10.2790
175.57	10.2807
175.58	10.2818
175.60	10.2833
175.62	10.2848
175.63	10.2861
175.65	10.2876
175.67	10.2890
175.68	10.2902
175.69	10.2917
175.71	10.2930
175.73	10.2944
175.75	10.2957
175.77	10.2969
175.78	10.2981
175.80	10.2996
175.82	10.3007
175.83	10.3020
175.85	10.3032
175.87	10.3045
175.88	10.3057
175.90	10.3073
175.92	10.3085
175.93	10.3098
175.95	10.3110
175.96	10.3123
175.98	10.3137
176.00	10.3148
176.02	10.3161
176.03	10.3175
176.05	10.3186
176.07	10.3201
176.08	10.3214
176.10	10.3228
176.12	10.3242
176.13	10.3254
176.15	10.3267
176.17	10.3279
176.18	10.3293
176.20	10.3304
176.22	10.3317
176.23	10.3330
176.25	10.3342
176.27	10.3357
176.28	10.3370
176.30	10.3383
176.32	10.3395
176.33	10.3408
176.35	10.3420
176.37	10.3434
176.38	10.3448
176.40	10.3459
176.42	10.3472
176.43	10.3483
176.45	10.3496
176.47	10.3508
176.48	10.3520
176.50	10.3533
176.51	10.3545
176.53	10.3558
176.55	10.3569
176.56	10.3581
176.58	10.3594
176.60	10.3602
176.62	10.3615
176.63	10.3627
176.65	10.3638
176.66	10.3649
176.68	10.3661
176.70	10.3674
176.72	10.3684
176.73	10.3698
176.75	10.3708
176.77	10.3721
176.78	10.3734
176.80	10.3740
176.81	10.3752
176.83	10.3766
176.85	10.3777
176.86	10.3793
176.88	10.3804
176.90	10.3816
176.91	10.3827
176.93	10.3841
176.94	10.3854
176.96	10.3867
176.98	10.3882
177.00	10.3894
177.02	10.3908
177.03	10.3920
177.05	10.3934
177.06	10.3949
177.08	10.3963
177.10	10.3976
177.12	10.3989
177.13	10.4003
177.15	10.4018
177.16	10.4029
177.18	10.4043
177.20	10.4055
177.22	10.4070
177.23	10.4085
177.25	10.4100
177.26	10.4118
177.28	10.4131
177.30	10.4145
177.31	10.4159
177.33	10.4175
177.35	10.4186
177.37	10.4200
177.38	10.4213
177.40	10.4225
177.41	10.4240
177.43	10.4253
177.44	10.4266
177.46	10.4281
177.48	10.4294
177.50	10.4310
177.51	10.4324
177.53	10.4337
177.55	10.4349
177.56	10.4363
177.58	10.4377
177.60	10.4391
177.61	10.4402
177.63	10.4412
177.65	10.4425
177.66	10.4441
177.68	10.4454
177.69	10.4465
177.72	10.4479
177.73	10.4491
177.75	10.4502
177.77	10.4515
177.78	10.4527
177.80	10.4540
177.82	10.4552
177.83	10.4564
177.85	10.4577
177.86	10.4589
177.88	10.4605
177.90	10.4619
177.91	10.4631
177.93	10.4646
177.94	10.4657
177.96	10.4672
177.98	10.4684
178.00	10.4695
178.01	10.4709
178.03	10.4723
178.05	10.4737
178.06	10.4751
178.08	10.4764
178.10	10.4778
178.11	10.4790
178.13	10.4805
178.15	10.4817
178.16	10.4829
178.18	10.4843
178.19	10.4854
178.21	10.4867
178.23	10.4880
178.25	10.4893
178.26	10.4904
178.28	10.4917
178.30	10.4928
178.31	10.4943
178.33	10.4955
178.35	10.4968
178.37	10.4981
178.38	10.4993
178.40	10.5005
178.41	10.5014
178.43	10.5028
178.44	10.5040
178.46	10.5054
178.48	10.5065
178.50	10.5076
178.51	10.5091
178.53	10.5102
178.55	10.5115
178.57	10.5127
178.58	10.5136
178.60	10.5147
178.61	10.5159
178.63	10.5171
178.65	10.5183
178.66	10.5193
178.68	10.5205
178.69	10.5218
178.71	10.5230
178.73	10.5242
178.75	10.5254
178.76	10.5265
178.78	10.5275
178.80	10.5288
178.81	10.5301
178.83	10.5312
178.85	10.5323
178.86	10.5336
178.88	10.5351
178.90	10.5363
178.92	10.5374
178.93	10.5387
178.94	10.5401
178.96	10.5413
178.97	10.5428
178.99	10.5441
179.01	10.5453
179.03	10.5467
179.05	10.5483
179.06	10.5494
179.08	10.5508
179.10	10.5523
179.11	10.5536
179.13	10.5550
179.15	10.5563
179.16	10.5578
179.18	10.5592
179.19	10.5605
179.21	10.5618
179.23	10.5632
179.25	10.5647
179.26	10.5658
179.28	10.5673
179.29	10.5687
179.31	10.5700
179.33	10.5713
179.35	10.5725
179.36	10.5737
179.38	10.5748
179.40	10.5761
179.41	10.5772
179.43	10.5784
179.44	10.5795
179.46	10.5808
179.48	10.5820
179.50	10.5831
179.51	10.5841
179.53	10.5851
179.55	10.5861
179.56	10.5871
179.58	10.5880
179.60	10.5889
179.61	10.5900
179.63	10.5913
179.65	10.5923
179.66	10.5933
179.68	10.5946
179.69	10.5955
179.71	10.5966
179.73	10.5978
179.75	10.5989
179.76	10.6000
179.78	10.6010
179.80	10.6022
179.81	10.6036
179.83	10.6048
179.84	10.6060
179.86	10.6073
179.88	10.6083
179.89	10.6096
179.91	10.6108
179.93	10.6119
179.94	10.6131
179.96	10.6142
179.98	10.6155
180.00	10.6165
180.01	10.6177
180.03	10.6190
180.05	10.6200
180.06	10.6212
180.08	10.6224
180.10	10.6236
180.11	10.6249
180.13	10.6261
180.15	10.6272
180.16	10.6284
180.18	10.6291
180.19	10.6304
180.21	10.6317
180.22	10.6328
180.24	10.6340
180.26	10.6352
180.28	10.6364
180.29	10.6378
180.31	10.6390
180.33	10.6400
180.35	10.6414
180.36	10.6426
180.38	10.6437
180.39	10.6451
180.41	10.6462
180.43	10.6476
180.44	10.6492
180.46	10.6506
180.48	10.6517
180.49	10.6531
180.51	10.6544
180.53	10.6555
180.55	10.6569
180.56	10.6580
180.58	10.6594
180.59	10.6606
180.61	10.6620
180.63	10.6634
180.65	10.6647
180.66	10.6660
180.68	10.6671
180.69	10.6685
180.71	10.6699
180.73	10.6711
180.74	10.6724
180.76	10.6737
180.78	10.6747
180.80	10.6756
180.81	10.6767
180.83	10.6774
180.85	10.6785
180.86	10.6794
180.88	10.6801
180.89	10.6807
180.91	10.6812
180.92	10.6817
180.94	10.6822
180.96	10.6827
180.97	10.6831
180.99	10.6837
181.00	10.6843
181.03	10.6850
181.04	10.6860
181.06	10.6870
181.08	10.6881
181.09	10.6889
181.11	10.6900
181.13	10.6912
181.14	10.6923
181.16	10.6937
181.18	10.6949
181.19	10.6963
181.21	10.6979
181.22	10.6993
181.24	10.7009
181.26	10.7025
181.27	10.7040
181.29	10.7057
181.31	10.7071
181.33	10.7087
181.34	10.7101
181.36	10.7116
181.38	10.7128
181.39	10.7145
181.40	10.7163
181.43	10.7179
181.44	10.7197
181.46	10.7213
181.47	10.7228
181.49	10.7244
181.51	10.7258
181.53	10.7272
181.54	10.7288
181.55	10.7301
181.57	10.7314
181.59	10.7328
181.60	10.7342
181.62	10.7358
181.64	10.7372
181.65	10.7386
181.67	10.7399
181.69	10.7413
181.70	10.7426
181.72	10.7439
181.74	10.7453
181.76	10.7465
181.78	10.7479
181.79	10.7490
181.80	10.7502
181.82	10.7516
181.84	10.7528
181.86	10.7542
181.87	10.7555
181.89	10.7565
181.91	10.7579
181.93	10.7591
181.94	10.7602
181.96	10.7617
181.97	10.7630
181.99	10.7641
182.00	10.7655
182.02	10.7669
182.04	10.7680
182.06	10.7695
182.07	10.7708
182.09	10.7720
182.10	10.7733
182.12	10.7743
182.14	10.7755
182.16	10.7771
182.18	10.7781
182.19	10.7795
182.20	10.7809
182.22	10.7824
182.24	10.7837
182.25	10.7850
182.27	10.7862
182.29	10.7877
182.30	10.7891
182.32	10.7903
182.34	10.7918
182.35	10.7930
182.37	10.7942
182.39	10.7955
182.40	10.7968
182.42	10.7982
182.44	10.7996
182.46	10.8009
182.47	10.8023
182.49	10.8037
182.51	10.8050
182.52	10.8062
182.54	10.8076
182.55	10.8089
182.57	10.8103
182.59	10.8118
182.60	10.8132
182.62	10.8144
182.64	10.8159
182.65	10.8171
182.67	10.8184
182.69	10.8196
182.70	10.8206
182.72	10.8215
182.74	10.8229
182.75	10.8240
182.77	10.8251
182.79	10.8265
182.80	10.8278
182.82	10.8291
182.84	10.8306
182.85	10.8316
182.87	10.8331
182.89	10.8343
182.90	10.8355
182.92	10.8368
182.94	10.8381
182.95	10.8392
182.97	10.8405
182.99	10.8417
183.00	10.8428
183.02	10.8439
183.04	10.8455
183.05	10.8469
183.07	10.8480
183.09	10.8494
183.10	10.8506
183.12	10.8518
183.14	10.8529
183.15	10.8540
183.17	10.8551
183.18	10.8565
183.20	10.8574
183.22	10.8587
183.23	10.8599
183.25	10.8612
183.27	10.8623
183.29	10.8636
183.30	10.8648
183.32	10.8658
183.33	10.8671
183.35	10.8684
183.37	10.8695
183.38	10.8708
183.40	10.8721
183.42	10.8733
183.43	10.8745
183.45	10.8757
183.47	10.8769
183.48	10.8783
183.50	10.8792
183.52	10.8804
183.54	10.8818
183.55	10.8831
183.57	10.8843
183.59	10.8856
183.60	10.8868
183.62	10.8881
183.64	10.8895
183.65	10.8908
183.66	10.8920
183.68	10.8934
183.70	10.8947
183.72	10.8959
183.73	10.8972
183.75	10.8984
183.77	10.8996
183.78	10.9011
183.80	10.9025
183.82	10.9038
183.83	10.9052
183.85	10.9065
183.87	10.9077
183.88	10.9092
183.90	10.9107
183.92	10.9120
183.94	10.9133
183.95	10.9146
183.97	10.9160
183.98	10.9173
184.00	10.9187
184.02	10.9201
184.04	10.9216
184.06	10.9229
184.07	10.9243
184.08	10.9256
184.10	10.9269
184.12	10.9282
184.13	10.9297
184.15	10.9308
184.17	10.9320
184.18	10.9333
184.20	10.9346
184.22	10.9358
184.24	10.9371
184.25	10.9384
184.27	10.9396
184.28	10.9409
184.30	10.9422
184.32	10.9434
184.33	10.9448
184.35	10.9461
184.37	10.9475
184.39	10.9489
184.40	10.9503
184.42	10.9514
184.43	10.9530
184.45	10.9545
184.47	10.9557
184.49	10.9571
184.50	10.9584
184.52	10.9596
184.53	10.9609
184.55	10.9625
184.57	10.9637
184.58	10.9652
184.60	10.9665
184.62	10.9678
184.63	10.9694
184.65	10.9707
184.67	10.9720
184.69	10.9733
184.70	10.9749
184.72	10.9762
184.73	10.9775
184.75	10.9787
184.77	10.9801
184.79	10.9813
184.80	10.9825
184.82	10.9838
184.83	10.9850
184.85	10.9864
184.87	10.9877
184.88	10.9888
184.90	10.9900
184.92	10.9912
184.93	10.9924
184.95	10.9939
184.97	10.9951
184.98	10.9964
185.00	10.9979
185.02	10.9991
185.04	11.0005
185.05	11.0019
185.07	11.0029
185.08	11.0041
185.10	11.0057
185.12	11.0069
185.13	11.0083
185.15	11.0095
185.17	11.0106
185.19	11.0120
185.20	11.0133
185.22	11.0145
185.24	11.0156
185.25	11.0165
185.27	11.0177
185.29	11.0190
185.30	11.0203
185.32	11.0215
185.34	11.0226
185.35	11.0238
185.37	11.0251
185.39	11.0261
185.40	11.0273
185.42	11.0287
185.43	11.0298
185.45	11.0310
185.47	11.0323
185.48	11.0334
185.50	11.0345
185.52	11.0357
185.53	11.0367
185.55	11.0380
185.56	11.0394
185.58	11.0405
185.60	11.0415
185.62	11.0429
185.63	11.0441
185.65	11.0454
185.67	11.0466
185.69	11.0481
185.70	11.0493
185.72	11.0506
185.73	11.0520
185.75	11.0534
185.77	11.0548
185.78	11.0559
185.80	11.0572
185.82	11.0585
185.84	11.0598
185.85	11.0613
185.87	11.0625
185.88	11.0640
185.90	11.0652
185.92	11.0666
185.93	11.0678
185.95	11.0691
185.97	11.0704
185.98	11.0719
186.00	11.0733
186.02	11.0746
186.04	11.0760
186.05	11.0773
186.07	11.0786
186.09	11.0799
186.10	11.0811
186.12	11.0823
186.14	11.0837
186.15	11.0847
186.17	11.0862
186.18	11.0877
186.20	11.0889
186.22	11.0903
186.24	11.0915
186.25	11.0926
186.27	11.0940
186.28	11.0952
186.30	11.0964
186.32	11.0976
186.34	11.0990
186.35	11.1002
186.38	11.1014
186.39	11.1027
186.40	11.1040
186.42	11.1052
186.44	11.1065
186.45	11.1080
186.47	11.1095
186.49	11.1107
186.50	11.1119
186.52	11.1131
186.54	11.1144
186.55	11.1157
186.57	11.1170
186.59	11.1185
186.60	11.1198
186.62	11.1213
186.64	11.1226
186.65	11.1238
186.67	11.1253
186.68	11.1264
186.70	11.1279
186.72	11.1291
186.73	11.1305
186.75	11.1319
186.77	11.1336
186.78	11.1349
186.80	11.1362
186.82	11.1377
186.83	11.1390
186.85	11.1402
186.87	11.1415
186.89	11.1430
186.90	11.1440
186.92	11.1454
186.94	11.1468
186.95	11.1480
186.97	11.1493
186.98	11.1508
187.00	11.1522
187.02	11.1536
187.04	11.1548
187.05	11.1560
187.07	11.1573
187.08	11.1584
187.10	11.1597
187.12	11.1611
187.13	11.1623
187.15	11.1637
187.17	11.1650
187.18	11.1663
187.20	11.1677
187.22	11.1691
187.23	11.1705
187.25	11.1715
187.27	11.1728
187.28	11.1742
187.30	11.1755
187.32	11.1767
187.34	11.1779
187.35	11.1793
187.37	11.1806
187.38	11.1818
187.40	11.1832
187.42	11.1846
187.43	11.1858
187.45	11.1870
187.47	11.1884
187.48	11.1895
187.50	11.1907
187.52	11.1920
187.53	11.1932
187.55	11.1946
187.57	11.1961
187.58	11.1974
187.60	11.1986
187.62	11.1998
187.63	11.2012
187.65	11.2025
187.66	11.2037
187.68	11.2050
187.69	11.2062
187.72	11.2075
187.73	11.2088
187.75	11.2101
187.77	11.2114
187.78	11.2125
187.80	11.2137
187.82	11.2148
187.83	11.2160
187.85	11.2173
187.87	11.2186
187.88	11.2197
187.90	11.2209
187.92	11.2222
187.93	11.2238
187.95	11.2250
187.97	11.2263
187.98	11.2276
188.00	11.2289
188.02	11.2300
188.03	11.2314
188.05	11.2325
188.07	11.2341
188.08	11.2352
188.10	11.2365
188.12	11.2380
188.13	11.2395
188.15	11.2410
188.17	11.2423
188.18	11.2438
188.19	11.2450
188.22	11.2462
188.23	11.2478
188.25	11.2491
188.27	11.2504
188.28	11.2518
188.30	11.2531
188.32	11.2547
188.33	11.2560
188.35	11.2575
188.37	11.2589
188.38	11.2601
188.40	11.2615
188.42	11.2629
188.43	11.2643
188.44	11.2656
188.47	11.2670
188.49	11.2682
188.50	11.2694
188.52	11.2707
188.53	11.2722
188.55	11.2735
188.57	11.2747
188.58	11.2762
188.60	11.2773
188.62	11.2787
188.64	11.2799
188.65	11.2811
188.67	11.2822
188.69	11.2836
188.70	11.2847
188.72	11.2860
188.73	11.2873
188.75	11.2883
188.77	11.2895
188.78	11.2908
188.80	11.2920
188.82	11.2932
188.84	11.2946
188.85	11.2957
188.87	11.2970
188.88	11.2982
188.90	11.2994
188.92	11.3008
188.93	11.3020
188.95	11.3033
188.96	11.3046
188.98	11.3059
189.00	11.3071
189.02	11.3083
189.03	11.3096
189.05	11.3108
189.07	11.3121
189.08	11.3135
189.10	11.3148
189.13	11.3161
189.14	11.3176
189.15	11.3191
189.17	11.3203
189.18	11.3217
189.20	11.3228
189.22	11.3242
189.24	11.3255
189.25	11.3267
189.27	11.3283
189.29	11.3295
189.30	11.3306
189.32	11.3321
189.33	11.3337
189.35	11.3349
189.37	11.3362
189.38	11.3376
189.40	11.3387
189.42	11.3400
189.43	11.3415
189.45	11.3428
189.47	11.3443
189.48	11.3456
189.50	11.3470
189.52	11.3484
189.53	11.3500
189.55	11.3510
189.57	11.3524
189.58	11.3541
189.60	11.3555
189.62	11.3568
189.63	11.3584
189.65	11.3596
189.67	11.3610
189.68	11.3625
189.70	11.3639
189.72	11.3656
189.74	11.3671
189.75	11.3683
189.77	11.3696
189.79	11.3712
189.80	11.3728
189.82	11.3741
189.83	11.3757
189.85	11.3770
189.86	11.3782
189.88	11.3799
189.90	11.3812
189.91	11.3827
189.93	11.3841
189.95	11.3857
189.97	11.3872
189.98	11.3884
190.00	11.3898
190.02	11.3913
190.04	11.3926
190.05	11.3939
190.07	11.3952
190.08	11.3965
190.10	11.3979
190.12	11.3991
190.13	11.4006
190.15	11.4016
190.16	11.4030
190.18	11.4042
190.20	11.4054
190.21	11.4068
190.23	11.4079
190.25	11.4091
190.27	11.4105
190.28	11.4119
190.30	11.4131
190.32	11.4142
190.33	11.4155
190.35	11.4169
190.37	11.4183
190.39	11.4193
190.40	11.4205
190.42	11.4218
190.43	11.4229
190.45	11.4244
190.47	11.4256
190.48	11.4267
190.50	11.4280
190.52	11.4292
190.53	11.4305
190.55	11.4320
190.57	11.4331
190.58	11.4341
190.60	11.4352
190.61	11.4365
190.63	11.4376
190.65	11.4388
190.67	11.4399
190.68	11.4412
190.70	11.4425
190.72	11.4437
190.73	11.4449
190.75	11.4462
190.77	11.4475
190.78	11.4490
190.80	11.4503
190.81	11.4515
190.83	11.4527
190.85	11.4538
190.87	11.4551
190.88	11.4565
190.90	11.4578
190.92	11.4591
190.93	11.4605
190.95	11.4619
190.97	11.4634
190.98	11.4649
191.00	11.4663
191.02	11.4677
191.04	11.4692
191.05	11.4705
191.07	11.4720
191.08	11.4733
191.10	11.4748
191.12	11.4763
191.13	11.4776
191.15	11.4790
191.16	11.4803
191.18	11.4816
191.20	11.4829
191.22	11.4844
191.23	11.4857
191.25	11.4870
191.27	11.4885
191.28	11.4899
191.30	11.4913
191.32	11.4925
191.34	11.4938
191.35	11.4954
191.38	11.4967
191.39	11.4981
191.40	11.4993
191.42	11.5006
191.43	11.5018
191.45	11.5032
191.47	11.5044
191.48	11.5058
191.50	11.5074
191.51	11.5088
191.53	11.5103
191.55	11.5116
191.57	11.5132
191.58	11.5145
191.60	11.5158
191.61	11.5171
191.63	11.5186
191.65	11.5199
191.67	11.5211
191.68	11.5225
191.70	11.5239
191.72	11.5256
191.73	11.5267
191.75	11.5280
191.76	11.5293
191.78	11.5305
191.80	11.5317
191.82	11.5331
191.83	11.5343
191.85	11.5355
191.87	11.5370
191.88	11.5383
191.90	11.5397
191.91	11.5410
191.93	11.5423
191.94	11.5435
191.96	11.5448
191.98	11.5460
192.00	11.5472
192.01	11.5485
192.03	11.5496
192.05	11.5507
192.06	11.5521
192.08	11.5531
192.10	11.5545
192.12	11.5558
192.13	11.5572
192.15	11.5586
192.16	11.5597
192.18	11.5609
192.20	11.5622
192.21	11.5633
192.23	11.5645
192.25	11.5656
192.27	11.5669
192.28	11.5683
192.30	11.5694
192.31	11.5708
192.33	11.5721
192.35	11.5734
192.37	11.5750
192.38	11.5761
192.40	11.5776
192.41	11.5789
192.43	11.5802
192.45	11.5819
192.47	11.5832
192.49	11.5845
192.50	11.5859
192.51	11.5873
192.53	11.5885
192.55	11.5900
192.57	11.5913
192.58	11.5925
192.60	11.5938
192.62	11.5951
192.63	11.5964
192.65	11.5978
192.67	11.5992
192.68	11.6005
192.70	11.6017
192.71	11.6030
192.73	11.6042
192.75	11.6056
192.77	11.6070
192.78	11.6083
192.80	11.6096
192.81	11.6109
192.83	11.6122
192.85	11.6136
192.86	11.6147
192.88	11.6160
192.90	11.6175
192.92	11.6189
192.93	11.6203
192.94	11.6216
192.96	11.6229
192.98	11.6243
193.00	11.6256
193.01	11.6270
193.03	11.6284
193.05	11.6300
193.07	11.6313
193.08	11.6329
193.10	11.6342
193.11	11.6355
193.13	11.6370
193.15	11.6383
193.17	11.6396
193.18	11.6408
193.19	11.6423
193.22	11.6436
193.23	11.6448
193.25	11.6463
193.26	11.6478
193.28	11.6494
193.29	11.6508
193.31	11.6522
193.33	11.6534
193.34	11.6548
193.36	11.6559
193.38	11.6572
193.40	11.6586
193.41	11.6598
193.43	11.6613
193.45	11.6627
193.46	11.6643
193.48	11.6656
193.50	11.6668
193.51	11.6684
193.53	11.6696
193.55	11.6712
193.56	11.6725
193.58	11.6738
193.60	11.6751
193.61	11.6763
193.63	11.6775
193.65	11.6787
193.66	11.6800
193.68	11.6813
193.69	11.6827
193.71	11.6842
193.73	11.6854
193.75	11.6868
193.76	11.6880
193.78	11.6894
193.80	11.6908
193.82	11.6919
193.83	11.6931
193.85	11.6945
193.86	11.6958
193.88	11.6969
193.90	11.6983
193.92	11.6997
193.93	11.7009
193.94	11.7021
193.97	11.7033
193.98	11.7046
194.00	11.7060
194.01	11.7074
194.03	11.7089
194.05	11.7102
194.06	11.7118
194.08	11.7131
194.10	11.7144
194.11	11.7159
194.13	11.7172
194.15	11.7185
194.16	11.7200
194.18	11.7211
194.20	11.7222
194.21	11.7235
194.23	11.7249
194.25	11.7262
194.27	11.7276
194.28	11.7289
194.30	11.7302
194.31	11.7317
194.33	11.7331
194.35	11.7341
194.36	11.7356
194.38	11.7368
194.40	11.7381
194.42	11.7395
194.43	11.7408
194.44	11.7423
194.46	11.7435
194.47	11.7449
194.50	11.7462
194.51	11.7473
194.53	11.7489
194.55	11.7500
194.56	11.7514
194.58	11.7526
194.60	11.7539
194.62	11.7553
194.63	11.7566
194.65	11.7582
194.66	11.7595
194.68	11.7604
194.69	11.7616
194.71	11.7633
194.73	11.7643
194.75	11.7656
194.76	11.7667
194.78	11.7681
194.80	11.7694
194.81	11.7708
194.83	11.7721
194.85	11.7734
194.86	11.7750
194.88	11.7762
194.90	11.7776
194.91	11.7789
194.93	11.7802
194.95	11.7815
194.97	11.7827
194.98	11.7840
195.00	11.7855
195.01	11.7869
195.03	11.7881
195.05	11.7894
195.06	11.7906
195.08	11.7920
195.10	11.7933
195.11	11.7948
195.13	11.7960
195.14	11.7973
195.16	11.7988
195.18	11.8000
195.20	11.8015
195.21	11.8029
195.23	11.8045
195.25	11.8059
195.26	11.8074
195.28	11.8088
195.30	11.8101
195.31	11.8116
195.33	11.8131
195.35	11.8146
195.37	11.8160
195.38	11.8173
195.40	11.8185
195.42	11.8201
195.43	11.8215
195.44	11.8231
195.46	11.8246
195.48	11.8261
195.50	11.8276
195.51	11.8290
195.53	11.8305
195.55	11.8318
195.56	11.8333
195.58	11.8348
195.60	11.8361
195.62	11.8374
195.63	11.8388
195.65	11.8402
195.67	11.8418
195.68	11.8434
195.69	11.8447
195.71	11.8459
195.73	11.8473
195.75	11.8485
195.76	11.8497
195.78	11.8513
195.80	11.8525
195.81	11.8540
195.83	11.8554
195.85	11.8571
195.86	11.8584
195.88	11.8597
195.90	11.8611
195.92	11.8624
195.93	11.8640
195.94	11.8653
195.96	11.8668
195.98	11.8682
196.00	11.8696
196.01	11.8711
196.03	11.8725
196.05	11.8738
196.07	11.8752
196.08	11.8767
196.10	11.8782
196.11	11.8794
196.13	11.8808
196.15	11.8823
196.17	11.8837
196.18	11.8852
196.19	11.8867
196.21	11.8882
196.23	11.8894
196.25	11.8909
196.26	11.8924
196.28	11.8938
196.30	11.8952
196.31	11.8964
196.33	11.8977
196.35	11.8989
196.36	11.9002
196.38	11.9018
196.40	11.9032
196.41	11.9046
196.43	11.9061
196.44	11.9076
196.46	11.9090
196.48	11.9103
196.50	11.9116
196.51	11.9130
196.53	11.9144
196.55	11.9157
196.56	11.9169
196.58	11.9182
196.60	11.9196
196.62	11.9208
196.63	11.9223
196.65	11.9237
196.67	11.9247
196.68	11.9259
196.70	11.9271
196.72	11.9282
196.73	11.9293
196.75	11.9305
196.77	11.9317
196.78	11.9330
196.80	11.9342
196.81	11.9353
196.83	11.9366
196.85	11.9381
196.86	11.9393
196.88	11.9405
196.90	11.9418
196.92	11.9430
196.93	11.9439
196.95	11.9453
196.97	11.9465
196.98	11.9478
197.00	11.9491
197.01	11.9502
197.03	11.9517
197.05	11.9530
197.06	11.9542
197.08	11.9554
197.10	11.9567
197.12	11.9581
197.13	11.9593
197.15	11.9605
197.17	11.9617
197.18	11.9632
197.19	11.9648
197.21	11.9661
197.23	11.9675
197.25	11.9690
197.26	11.9703
197.28	11.9717
197.30	11.9731
197.32	11.9743
197.33	11.9758
197.35	11.9772
197.36	11.9785
197.38	11.9798
197.40	11.9815
197.41	11.9830
197.43	11.9843
197.44	11.9858
197.46	11.9870
197.48	11.9883
197.50	11.9897
197.51	11.9912
197.53	11.9925
197.54	11.9937
197.56	11.9952
197.58	11.9968
197.60	11.9981
197.61	11.9995
197.63	12.0011
197.65	12.0026
197.67	12.0041
197.68	12.0056
197.69	12.0068
197.72	12.0082
197.73	12.0096
197.75	12.0110
197.77	12.0124
197.78	12.0138
197.80	12.0152
197.82	12.0166
197.83	12.0181
197.85	12.0197
197.87	12.0209
197.88	12.0224
197.90	12.0238
197.92	12.0250
197.93	12.0266
197.94	12.0279
197.96	12.0292
197.98	12.0307
198.00	12.0320
198.02	12.0335
198.03	12.0348
198.05	12.0363
198.06	12.0376
198.08	12.0388
198.10	12.0403
198.12	12.0415
198.13	12.0430
198.15	12.0446
198.17	12.0459
198.18	12.0474
198.19	12.0488
198.21	12.0504
198.23	12.0518
198.25	12.0529
198.27	12.0544
198.28	12.0557
198.30	12.0571
198.31	12.0583
198.33	12.0595
198.34	12.0608
198.36	12.0620
198.38	12.0634
198.40	12.0649
198.41	12.0661
198.43	12.0674
198.44	12.0686
198.46	12.0699
198.48	12.0713
198.50	12.0727
198.51	12.0739
198.53	12.0753
198.55	12.0766
198.56	12.0779
198.58	12.0794
198.60	12.0808
198.61	12.0821
198.63	12.0834
198.65	12.0848
198.66	12.0860
198.68	12.0874
198.69	12.0885
198.71	12.0897
198.73	12.0910
198.75	12.0923
198.76	12.0936
198.78	12.0949
198.80	12.0964
198.81	12.0979
198.83	12.0993
198.85	12.1010
198.87	12.1021
198.88	12.1035
198.90	12.1050
198.91	12.1063
198.93	12.1076
198.94	12.1091
198.96	12.1103
198.98	12.1118
199.00	12.1130
199.01	12.1144
199.03	12.1158
199.05	12.1172
199.06	12.1184
199.08	12.1199
199.10	12.1210
199.11	12.1224
199.13	12.1238
199.15	12.1252
199.16	12.1266
199.18	12.1280
199.19	12.1294
199.21	12.1308
199.23	12.1321
199.25	12.1335
199.26	12.1350
199.28	12.1363
199.30	12.1375
199.31	12.1387
199.33	12.1401
199.34	12.1415
199.36	12.1428
199.38	12.1441
199.40	12.1455
199.41	12.1466
199.43	12.1481
199.44	12.1493
199.46	12.1506
199.47	12.1519
199.49	12.1534
199.51	12.1547
199.53	12.1560
199.55	12.1574
199.56	12.1587
199.58	12.1601
199.60	12.1615
199.61	12.1627
199.63	12.1642
199.65	12.1657
199.66	12.1670
199.68	12.1683
199.69	12.1695
199.71	12.1707
199.73	12.1722
199.75	12.1736
199.76	12.1746
199.78	12.1760
199.80	12.1774
199.81	12.1787
199.83	12.1801
199.85	12.1815
199.86	12.1827
199.88	12.1841
199.90	12.1855
199.91	12.1866
