Filename:	D:\TGAdata\„∆√ŒœÈ\20150506\30%10mm.pdid

Temperature (°„C)	Heat Flow Endo Up (mW)
10.12	0.3039
10.13	0.3542
10.13	0.3894
10.13	0.4111
10.13	0.4235
10.13	0.4303
10.13	0.4344
10.13	0.4384
10.13	0.4429
10.14	0.4498
10.14	0.4586
10.15	0.4696
10.16	0.4826
10.17	0.4973
10.18	0.5135
10.18	0.5307
10.19	0.5488
10.20	0.5669
10.21	0.5850
10.22	0.6028
10.23	0.6199
10.25	0.6361
10.26	0.6516
10.28	0.6660
10.29	0.6796
10.30	0.6923
10.32	0.7040
10.33	0.7152
10.35	0.7256
10.36	0.7354
10.37	0.7453
10.39	0.7550
10.40	0.7643
10.42	0.7739
10.43	0.7838
10.45	0.7940
10.46	0.8044
10.48	0.8152
10.50	0.8266
10.51	0.8391
10.53	0.8521
10.54	0.8660
10.56	0.8808
10.57	0.8965
10.59	0.9131
10.61	0.9305
10.62	0.9488
10.64	0.9682
10.65	0.9886
10.67	1.0101
10.68	1.0324
10.70	1.0554
10.72	1.0793
10.73	1.1038
10.75	1.1291
10.77	1.1552
10.78	1.1819
10.80	1.2092
10.82	1.2370
10.83	1.2652
10.85	1.2942
10.86	1.3234
10.88	1.3529
10.90	1.3828
10.91	1.4130
10.93	1.4433
10.94	1.4740
10.95	1.5048
10.98	1.5356
10.99	1.5666
11.01	1.5975
11.03	1.6285
11.05	1.6597
11.06	1.6904
11.08	1.7211
11.09	1.7517
11.10	1.7822
11.12	1.8123
11.14	1.8423
11.16	1.8719
11.18	1.9011
11.19	1.9299
11.21	1.9584
11.23	1.9867
11.24	2.0146
11.25	2.0421
11.28	2.0694
11.29	2.0963
11.30	2.1229
11.33	2.1489
11.34	2.1746
11.35	2.2000
11.37	2.2249
11.39	2.2496
11.41	2.2736
11.42	2.2971
11.44	2.3202
11.46	2.3428
11.48	2.3652
11.49	2.3869
11.50	2.4083
11.52	2.4292
11.54	2.4498
11.56	2.4698
11.58	2.4896
11.60	2.5088
11.60	2.5279
11.62	2.5465
11.64	2.5646
11.65	2.5825
11.67	2.6000
11.68	2.6171
11.70	2.6340
11.73	2.6507
11.74	2.6669
11.76	2.6827
11.78	2.6980
11.79	2.7130
11.80	2.7278
11.82	2.7422
11.84	2.7561
11.85	2.7694
11.88	2.7825
11.89	2.7955
11.90	2.8079
11.92	2.8201
11.93	2.8320
11.95	2.8436
11.97	2.8547
11.98	2.8658
12.00	2.8769
12.02	2.8874
12.04	2.8978
12.06	2.9080
12.07	2.9176
12.09	2.9272
12.10	2.9366
12.12	2.9457
12.14	2.9546
12.16	2.9632
12.18	2.9716
12.19	2.9798
12.20	2.9879
12.23	2.9956
12.24	3.0034
12.25	3.0109
12.28	3.0181
12.29	3.0253
12.30	3.0321
12.32	3.0386
12.34	3.0451
12.35	3.0514
12.37	3.0576
12.39	3.0637
12.40	3.0696
12.42	3.0755
12.43	3.0812
12.45	3.0867
12.47	3.0922
12.49	3.0975
12.50	3.1027
12.52	3.1078
12.54	3.1127
12.55	3.1172
12.58	3.1217
12.59	3.1261
12.60	3.1304
12.62	3.1346
12.64	3.1385
12.66	3.1424
12.67	3.1464
12.68	3.1501
12.70	3.1538
12.72	3.1575
12.73	3.1610
12.75	3.1643
12.77	3.1677
12.78	3.1710
12.80	3.1743
12.82	3.1776
12.83	3.1805
12.85	3.1833
12.87	3.1861
12.89	3.1889
12.90	3.1915
12.92	3.1941
12.93	3.1967
12.95	3.1990
12.97	3.2014
12.99	3.2040
13.01	3.2063
13.03	3.2085
13.04	3.2107
13.05	3.2128
13.08	3.2148
13.09	3.2171
13.10	3.2195
13.13	3.2215
13.14	3.2235
13.15	3.2255
13.17	3.2274
13.19	3.2293
13.21	3.2312
13.22	3.2332
13.24	3.2350
13.25	3.2365
13.28	3.2381
13.29	3.2396
13.30	3.2411
13.32	3.2425
13.34	3.2439
13.36	3.2455
13.37	3.2470
13.39	3.2485
13.40	3.2498
13.42	3.2511
13.43	3.2523
13.45	3.2536
13.47	3.2549
13.49	3.2562
13.50	3.2574
13.52	3.2587
13.54	3.2599
13.55	3.2610
13.57	3.2621
13.59	3.2632
13.61	3.2640
13.63	3.2651
13.64	3.2663
13.65	3.2675
13.67	3.2684
13.69	3.2694
13.70	3.2704
13.72	3.2713
13.73	3.2722
13.75	3.2732
13.78	3.2744
13.79	3.2756
13.80	3.2768
13.82	3.2781
13.84	3.2795
13.85	3.2803
13.88	3.2813
13.89	3.2822
13.90	3.2831
13.92	3.2840
13.93	3.2848
13.96	3.2855
13.98	3.2864
13.99	3.2873
14.00	3.2881
14.02	3.2890
14.04	3.2897
14.05	3.2903
14.07	3.2910
14.08	3.2915
14.10	3.2923
14.12	3.2929
14.14	3.2936
14.15	3.2942
14.17	3.2951
14.19	3.2958
14.21	3.2964
14.23	3.2969
14.24	3.2977
14.25	3.2984
14.27	3.2993
14.29	3.3000
14.30	3.3007
14.32	3.3013
14.34	3.3019
14.35	3.3026
14.37	3.3032
14.39	3.3036
14.40	3.3041
14.43	3.3047
14.45	3.3053
14.46	3.3062
14.47	3.3069
14.49	3.3079
14.50	3.3088
14.52	3.3095
14.54	3.3101
14.56	3.3109
14.57	3.3117
14.59	3.3124
14.61	3.3132
14.63	3.3138
14.64	3.3144
14.65	3.3149
14.68	3.3155
14.69	3.3160
14.71	3.3167
14.73	3.3172
14.74	3.3179
14.76	3.3183
14.78	3.3191
14.79	3.3196
14.80	3.3201
14.82	3.3206
14.84	3.3211
14.86	3.3216
14.88	3.3221
14.89	3.3225
14.90	3.3231
14.92	3.3236
14.94	3.3241
14.96	3.3245
14.97	3.3251
14.98	3.3257
15.00	3.3261
15.02	3.3267
15.04	3.3272
15.06	3.3276
15.07	3.3282
15.09	3.3287
15.11	3.3292
15.13	3.3298
15.14	3.3305
15.15	3.3310
15.17	3.3317
15.19	3.3325
15.20	3.3329
15.22	3.3334
15.24	3.3338
15.26	3.3345
15.28	3.3351
15.30	3.3355
15.31	3.3361
15.33	3.3366
15.34	3.3371
15.36	3.3375
15.38	3.3379
15.39	3.3384
15.41	3.3388
15.43	3.3392
15.44	3.3397
15.46	3.3401
15.47	3.3406
15.49	3.3412
15.51	3.3415
15.53	3.3420
15.55	3.3425
15.56	3.3431
15.58	3.3436
15.60	3.3442
15.61	3.3446
15.63	3.3451
15.64	3.3457
15.66	3.3461
15.68	3.3465
15.69	3.3470
15.70	3.3474
15.73	3.3479
15.74	3.3484
15.76	3.3486
15.78	3.3491
15.79	3.3498
15.81	3.3505
15.83	3.3513
15.84	3.3519
15.86	3.3526
15.88	3.3534
15.90	3.3540
15.91	3.3544
15.93	3.3548
15.94	3.3553
15.95	3.3557
15.98	3.3562
15.99	3.3567
16.01	3.3572
16.02	3.3577
16.04	3.3581
16.05	3.3583
16.07	3.3587
16.09	3.3593
16.10	3.3596
16.12	3.3601
16.14	3.3606
16.16	3.3611
16.18	3.3617
16.19	3.3623
16.21	3.3627
16.23	3.3632
16.25	3.3638
16.26	3.3642
16.27	3.3647
16.29	3.3653
16.30	3.3659
16.32	3.3666
16.34	3.3672
16.36	3.3677
16.38	3.3683
16.39	3.3688
16.41	3.3692
16.42	3.3698
16.44	3.3702
16.46	3.3707
16.48	3.3712
16.50	3.3719
16.51	3.3727
16.53	3.3734
16.54	3.3741
16.56	3.3746
16.57	3.3753
16.59	3.3757
16.61	3.3763
16.63	3.3769
16.64	3.3775
16.66	3.3781
16.68	3.3785
16.69	3.3789
16.70	3.3791
16.72	3.3796
16.75	3.3802
16.76	3.3805
16.77	3.3809
16.79	3.3815
16.80	3.3820
16.82	3.3826
16.84	3.3831
16.86	3.3834
16.88	3.3839
16.89	3.3842
16.90	3.3846
16.93	3.3849
16.94	3.3852
16.96	3.3857
16.98	3.3862
16.99	3.3866
17.01	3.3873
17.02	3.3880
17.05	3.3887
17.06	3.3893
17.07	3.3901
17.09	3.3907
17.11	3.3911
17.13	3.3918
17.14	3.3923
17.16	3.3927
17.17	3.3932
17.19	3.3938
17.20	3.3942
17.22	3.3947
17.24	3.3953
17.25	3.3958
17.27	3.3962
17.29	3.3968
17.30	3.3973
17.32	3.3980
17.34	3.3984
17.36	3.3989
17.37	3.3995
17.39	3.4003
17.41	3.4011
17.43	3.4019
17.44	3.4024
17.46	3.4031
17.47	3.4038
17.49	3.4045
17.51	3.4052
17.53	3.4057
17.54	3.4061
17.56	3.4067
17.57	3.4072
17.59	3.4077
17.61	3.4079
17.63	3.4084
17.64	3.4088
17.65	3.4094
17.67	3.4100
17.68	3.4103
17.70	3.4109
17.73	3.4113
17.74	3.4120
17.76	3.4126
17.77	3.4133
17.78	3.4139
17.80	3.4147
17.82	3.4153
17.84	3.4159
17.86	3.4163
17.87	3.4170
17.89	3.4174
17.91	3.4178
17.93	3.4182
17.94	3.4186
17.95	3.4190
17.97	3.4196
17.99	3.4202
18.01	3.4205
18.03	3.4209
18.04	3.4213
18.06	3.4216
18.07	3.4219
18.09	3.4222
18.11	3.4225
18.13	3.4231
18.14	3.4236
18.16	3.4244
18.18	3.4250
18.20	3.4256
18.21	3.4261
18.23	3.4266
18.24	3.4272
18.25	3.4278
18.27	3.4281
18.29	3.4284
18.31	3.4289
18.32	3.4295
18.34	3.4297
18.35	3.4302
18.37	3.4306
18.39	3.4310
18.40	3.4315
18.42	3.4317
18.44	3.4320
18.46	3.4323
18.47	3.4327
18.49	3.4333
18.50	3.4339
18.53	3.4344
18.54	3.4349
18.56	3.4354
18.57	3.4358
18.59	3.4362
18.60	3.4366
18.63	3.4370
18.64	3.4375
18.65	3.4379
18.67	3.4383
18.69	3.4388
18.70	3.4391
18.72	3.4395
18.74	3.4398
18.75	3.4402
18.77	3.4405
18.79	3.4408
18.80	3.4414
18.82	3.4418
18.84	3.4422
18.86	3.4426
18.88	3.4432
18.89	3.4438
18.90	3.4443
18.93	3.4447
18.94	3.4452
18.95	3.4455
18.97	3.4460
18.98	3.4465
19.00	3.4471
19.02	3.4475
19.03	3.4478
19.06	3.4481
19.07	3.4485
19.09	3.4489
19.10	3.4491
19.12	3.4496
19.14	3.4500
19.16	3.4503
19.17	3.4507
19.19	3.4511
19.20	3.4515
19.22	3.4521
19.23	3.4525
19.25	3.4531
19.26	3.4536
19.28	3.4542
19.31	3.4548
19.32	3.4552
19.34	3.4558
19.35	3.4564
19.37	3.4568
19.39	3.4571
19.40	3.4576
19.42	3.4579
19.44	3.4583
19.45	3.4586
19.47	3.4589
19.49	3.4594
19.51	3.4597
19.52	3.4602
19.54	3.4606
19.55	3.4611
19.57	3.4614
19.59	3.4620
19.60	3.4626
19.62	3.4630
19.64	3.4637
19.65	3.4644
19.68	3.4651
19.69	3.4655
19.71	3.4660
19.73	3.4665
19.74	3.4669
19.75	3.4675
19.77	3.4680
19.79	3.4683
19.80	3.4685
19.82	3.4690
19.84	3.4692
19.85	3.4694
19.87	3.4699
19.88	3.4703
19.90	3.4707
19.92	3.4710
19.94	3.4714
19.95	3.4716
19.97	3.4722
19.99	3.4727
20.00	3.4734
20.02	3.4738
20.03	3.4744
20.05	3.4749
20.07	3.4754
20.09	3.4759
20.10	3.4762
20.12	3.4766
20.13	3.4769
20.15	3.4773
20.17	3.4777
20.18	3.4780
20.20	3.4785
20.22	3.4789
20.23	3.4791
20.25	3.4796
20.27	3.4801
20.29	3.4803
20.30	3.4809
20.32	3.4813
20.34	3.4819
20.35	3.4825
20.37	3.4831
20.39	3.4839
20.40	3.4845
20.41	3.4851
20.43	3.4855
20.45	3.4859
20.47	3.4865
20.48	3.4870
20.50	3.4876
20.52	3.4879
20.53	3.4882
20.55	3.4886
20.56	3.4888
20.58	3.4892
20.60	3.4897
20.62	3.4902
20.63	3.4908
20.65	3.4913
20.67	3.4917
20.69	3.4921
20.70	3.4929
20.72	3.4934
20.74	3.4938
20.75	3.4946
20.77	3.4951
20.79	3.4957
20.80	3.4964
20.82	3.4970
20.83	3.4974
20.85	3.4978
20.86	3.4982
20.88	3.4987
20.90	3.4990
20.91	3.4994
20.93	3.4999
20.95	3.5004
20.97	3.5009
20.98	3.5013
21.00	3.5019
21.02	3.5022
21.03	3.5025
21.05	3.5030
21.07	3.5038
21.08	3.5045
21.10	3.5051
21.12	3.5058
21.13	3.5065
21.15	3.5070
21.17	3.5076
21.18	3.5080
21.20	3.5086
21.22	3.5090
21.23	3.5094
21.25	3.5099
21.27	3.5102
21.28	3.5107
21.30	3.5111
21.32	3.5115
21.33	3.5119
21.35	3.5123
21.37	3.5128
21.38	3.5131
21.40	3.5135
21.42	3.5139
21.43	3.5146
21.45	3.5154
21.47	3.5160
21.48	3.5166
21.50	3.5171
21.52	3.5178
21.53	3.5182
21.55	3.5189
21.56	3.5195
21.58	3.5197
21.59	3.5202
21.61	3.5207
21.62	3.5210
21.65	3.5214
21.66	3.5218
21.68	3.5220
21.70	3.5225
21.71	3.5229
21.73	3.5232
21.75	3.5236
21.77	3.5240
21.78	3.5245
21.80	3.5254
21.82	3.5263
21.83	3.5268
21.84	3.5274
21.86	3.5280
21.88	3.5284
21.90	3.5290
21.91	3.5296
21.93	3.5299
21.95	3.5303
21.97	3.5310
21.98	3.5316
22.00	3.5319
22.01	3.5325
22.03	3.5328
22.05	3.5333
22.06	3.5338
22.08	3.5341
22.09	3.5345
22.11	3.5351
22.13	3.5355
22.15	3.5361
22.16	3.5367
22.18	3.5373
22.20	3.5380
22.21	3.5385
22.23	3.5389
22.25	3.5394
22.26	3.5399
22.28	3.5403
22.30	3.5406
22.32	3.5412
22.33	3.5416
22.34	3.5420
22.36	3.5425
22.38	3.5429
22.40	3.5434
22.41	3.5440
22.43	3.5443
22.45	3.5448
22.46	3.5454
22.48	3.5457
22.50	3.5462
22.51	3.5466
22.53	3.5473
22.55	3.5479
22.56	3.5486
22.58	3.5491
22.60	3.5496
22.61	3.5500
22.63	3.5506
22.65	3.5513
22.66	3.5516
22.68	3.5520
22.69	3.5525
22.71	3.5528
22.73	3.5533
22.75	3.5539
22.76	3.5541
22.78	3.5549
22.80	3.5553
22.81	3.5558
22.83	3.5561
22.84	3.5568
22.86	3.5571
22.88	3.5579
22.90	3.5584
22.91	3.5590
22.93	3.5596
22.95	3.5604
22.96	3.5610
22.98	3.5614
23.00	3.5621
23.01	3.5627
23.03	3.5632
23.04	3.5637
23.06	3.5639
23.07	3.5645
23.09	3.5649
23.10	3.5654
23.12	3.5657
23.14	3.5661
23.16	3.5666
23.18	3.5669
23.20	3.5675
23.21	3.5679
23.23	3.5684
23.24	3.5689
23.26	3.5695
23.28	3.5701
23.30	3.5708
23.31	3.5715
23.33	3.5721
23.34	3.5727
23.36	3.5733
23.38	3.5738
23.39	3.5743
23.42	3.5747
23.43	3.5750
23.44	3.5755
23.46	3.5760
23.48	3.5764
23.50	3.5768
23.51	3.5773
23.53	3.5778
23.55	3.5782
23.56	3.5784
23.57	3.5786
23.59	3.5792
23.61	3.5796
23.63	3.5803
23.64	3.5809
23.65	3.5813
23.67	3.5820
23.69	3.5827
23.70	3.5832
23.72	3.5837
23.74	3.5841
23.76	3.5847
23.77	3.5851
23.78	3.5856
23.80	3.5860
23.82	3.5866
23.84	3.5870
23.86	3.5874
23.87	3.5879
23.89	3.5881
23.91	3.5886
23.93	3.5891
23.94	3.5895
23.95	3.5900
23.97	3.5908
23.99	3.5913
24.01	3.5918
24.03	3.5925
24.04	3.5930
24.06	3.5935
24.07	3.5939
24.09	3.5944
24.10	3.5949
24.13	3.5952
24.15	3.5956
24.16	3.5959
24.18	3.5964
24.19	3.5970
24.20	3.5974
24.23	3.5978
24.24	3.5981
24.26	3.5985
24.28	3.5990
24.29	3.5995
24.30	3.6000
24.32	3.6007
24.34	3.6015
24.36	3.6021
24.37	3.6028
24.39	3.6035
24.41	3.6041
24.43	3.6044
24.44	3.6048
24.45	3.6052
24.48	3.6056
24.49	3.6064
24.50	3.6067
24.52	3.6071
24.54	3.6077
24.55	3.6080
24.57	3.6084
24.59	3.6088
24.60	3.6091
24.63	3.6098
24.64	3.6103
24.65	3.6110
24.68	3.6115
24.68	3.6120
24.70	3.6128
24.72	3.6134
24.73	3.6141
24.75	3.6147
24.78	3.6152
24.79	3.6158
24.80	3.6163
24.82	3.6166
24.84	3.6172
24.85	3.6175
24.87	3.6178
24.89	3.6182
24.90	3.6186
24.92	3.6191
24.94	3.6196
24.96	3.6201
24.97	3.6205
24.99	3.6210
25.00	3.6214
25.02	3.6217
25.04	3.6220
25.05	3.6227
25.07	3.6232
25.08	3.6237
25.11	3.6243
25.12	3.6250
25.13	3.6256
25.15	3.6259
25.17	3.6265
25.19	3.6270
25.20	3.6273
25.22	3.6277
25.23	3.6283
25.25	3.6286
25.27	3.6291
25.28	3.6295
25.30	3.6299
25.32	3.6304
25.34	3.6309
25.35	3.6311
25.37	3.6316
25.39	3.6320
25.40	3.6325
25.42	3.6332
25.44	3.6340
25.45	3.6344
25.47	3.6351
25.49	3.6358
25.50	3.6365
25.52	3.6373
25.53	3.6378
25.55	3.6383
25.57	3.6389
25.58	3.6393
25.60	3.6397
25.61	3.6401
25.63	3.6406
25.65	3.6410
25.67	3.6413
25.68	3.6417
25.70	3.6419
25.72	3.6425
25.73	3.6430
25.75	3.6434
25.76	3.6441
25.78	3.6449
25.80	3.6458
25.82	3.6465
25.83	3.6471
25.85	3.6477
25.87	3.6483
25.89	3.6488
25.90	3.6493
25.92	3.6496
25.94	3.6501
25.95	3.6505
25.96	3.6512
25.98	3.6516
26.00	3.6521
26.02	3.6527
26.03	3.6531
26.05	3.6536
26.07	3.6540
26.08	3.6544
26.10	3.6548
26.12	3.6553
26.13	3.6559
26.15	3.6566
26.16	3.6572
26.18	3.6581
26.20	3.6584
26.22	3.6590
26.23	3.6596
26.25	3.6601
26.27	3.6606
26.29	3.6609
26.30	3.6614
26.32	3.6620
26.33	3.6623
26.34	3.6627
26.37	3.6630
26.38	3.6634
26.40	3.6638
26.41	3.6644
26.43	3.6650
26.45	3.6654
26.46	3.6659
26.48	3.6666
26.50	3.6673
26.52	3.6682
26.53	3.6688
26.55	3.6695
26.56	3.6698
26.58	3.6705
26.59	3.6709
26.61	3.6714
26.63	3.6721
26.65	3.6726
26.67	3.6731
26.68	3.6736
26.70	3.6741
26.72	3.6746
26.73	3.6753
26.75	3.6757
26.77	3.6762
26.78	3.6766
26.80	3.6769
26.82	3.6774
26.83	3.6780
26.85	3.6786
26.86	3.6790
26.88	3.6797
26.90	3.6803
26.91	3.6810
26.93	3.6817
26.95	3.6821
26.96	3.6826
26.98	3.6832
27.00	3.6836
27.01	3.6840
27.03	3.6844
27.05	3.6847
27.07	3.6852
27.08	3.6855
27.10	3.6859
27.12	3.6864
27.13	3.6869
27.15	3.6872
27.16	3.6877
27.18	3.6882
27.20	3.6885
27.22	3.6892
27.23	3.6897
27.25	3.6902
27.26	3.6909
27.28	3.6917
27.30	3.6922
27.31	3.6927
27.33	3.6933
27.34	3.6935
27.36	3.6940
27.38	3.6943
27.40	3.6946
27.42	3.6949
27.43	3.6952
27.45	3.6957
27.47	3.6961
27.48	3.6967
27.50	3.6969
27.51	3.6975
27.53	3.6981
27.55	3.6984
27.57	3.6991
27.58	3.6997
27.60	3.7004
27.62	3.7012
27.63	3.7017
27.65	3.7022
27.66	3.7029
27.68	3.7034
27.70	3.7040
27.72	3.7045
27.73	3.7053
27.75	3.7058
27.77	3.7061
27.78	3.7066
27.80	3.7071
27.82	3.7077
27.83	3.7080
27.85	3.7085
27.87	3.7091
27.88	3.7095
27.90	3.7100
27.92	3.7106
27.93	3.7112
27.95	3.7121
27.96	3.7132
27.98	3.7138
28.00	3.7148
28.02	3.7157
28.03	3.7165
28.05	3.7173
28.07	3.7177
28.08	3.7182
28.10	3.7186
28.12	3.7192
28.13	3.7196
28.15	3.7202
28.17	3.7206
28.18	3.7211
28.20	3.7217
28.22	3.7222
28.23	3.7226
28.25	3.7232
28.26	3.7239
28.28	3.7243
28.30	3.7250
28.32	3.7259
28.33	3.7267
28.35	3.7273
28.36	3.7281
28.38	3.7288
28.40	3.7295
28.42	3.7301
28.43	3.7304
28.45	3.7311
28.46	3.7316
28.48	3.7320
28.50	3.7328
28.52	3.7333
28.53	3.7340
28.55	3.7343
28.57	3.7349
28.58	3.7352
28.59	3.7357
28.61	3.7362
28.64	3.7366
28.65	3.7372
28.67	3.7381
28.68	3.7388
28.70	3.7394
28.72	3.7401
28.73	3.7406
28.75	3.7412
28.76	3.7418
28.78	3.7422
28.80	3.7427
28.82	3.7434
28.84	3.7437
28.85	3.7442
28.86	3.7448
28.88	3.7450
28.90	3.7455
28.92	3.7461
28.94	3.7464
28.95	3.7469
28.96	3.7472
28.98	3.7477
29.00	3.7482
29.02	3.7488
29.03	3.7495
29.05	3.7501
29.07	3.7507
29.08	3.7511
29.10	3.7517
29.11	3.7521
29.13	3.7527
29.15	3.7531
29.16	3.7536
29.18	3.7541
29.20	3.7545
29.22	3.7549
29.23	3.7554
29.25	3.7557
29.27	3.7562
29.29	3.7567
29.30	3.7570
29.31	3.7576
29.33	3.7580
29.35	3.7586
29.37	3.7592
29.38	3.7599
29.40	3.7605
29.42	3.7611
29.44	3.7616
29.45	3.7623
29.47	3.7630
29.48	3.7636
29.50	3.7640
29.52	3.7644
29.53	3.7649
29.55	3.7653
29.56	3.7659
29.58	3.7662
29.59	3.7666
29.62	3.7671
29.63	3.7675
29.65	3.7680
29.66	3.7685
29.68	3.7689
29.70	3.7695
29.71	3.7699
29.73	3.7707
29.75	3.7714
29.77	3.7720
29.78	3.7727
29.80	3.7732
29.81	3.7737
29.83	3.7743
29.84	3.7750
29.86	3.7757
29.88	3.7760
29.90	3.7764
29.91	3.7771
29.93	3.7773
29.95	3.7777
29.97	3.7782
29.98	3.7786
29.99	3.7791
30.01	3.7795
30.03	3.7798
30.05	3.7802
30.06	3.7806
30.08	3.7815
30.09	3.7821
30.11	3.7829
30.13	3.7837
30.15	3.7844
30.16	3.7851
30.18	3.7857
30.20	3.7860
30.21	3.7867
30.23	3.7871
30.25	3.7876
30.27	3.7881
30.28	3.7886
30.30	3.7889
30.31	3.7896
30.33	3.7899
30.34	3.7905
30.37	3.7911
30.38	3.7916
30.40	3.7919
30.42	3.7924
30.43	3.7928
30.45	3.7937
30.46	3.7943
30.48	3.7949
30.50	3.7954
30.51	3.7962
30.53	3.7966
30.55	3.7971
30.57	3.7977
30.58	3.7983
30.60	3.7988
30.61	3.7995
30.63	3.7999
30.64	3.8005
30.66	3.8010
30.68	3.8014
30.70	3.8019
30.71	3.8022
30.73	3.8028
30.75	3.8034
30.77	3.8036
30.79	3.8043
30.80	3.8049
30.82	3.8054
30.83	3.8061
30.85	3.8070
30.86	3.8077
30.88	3.8082
30.90	3.8087
30.91	3.8091
30.93	3.8096
30.95	3.8103
30.96	3.8109
30.98	3.8112
31.00	3.8118
31.01	3.8124
31.03	3.8130
31.05	3.8137
31.06	3.8142
31.08	3.8145
31.10	3.8149
31.11	3.8152
31.13	3.8157
31.15	3.8164
31.16	3.8172
31.18	3.8179
31.19	3.8187
31.21	3.8194
31.23	3.8198
31.25	3.8203
31.26	3.8207
31.28	3.8212
31.30	3.8217
31.32	3.8223
31.33	3.8226
31.35	3.8230
31.35	3.8237
31.38	3.8242
31.39	3.8245
31.41	3.8250
31.43	3.8253
31.44	3.8257
31.46	3.8263
31.48	3.8267
31.50	3.8273
31.51	3.8281
31.53	3.8288
31.54	3.8295
31.56	3.8300
31.58	3.8306
31.59	3.8312
31.61	3.8318
31.63	3.8323
31.64	3.8328
31.66	3.8333
31.68	3.8337
31.69	3.8343
31.71	3.8345
31.73	3.8348
31.75	3.8352
31.76	3.8355
31.78	3.8360
31.79	3.8365
31.81	3.8368
31.83	3.8373
31.85	3.8377
31.86	3.8383
31.88	3.8390
31.89	3.8398
31.91	3.8405
31.93	3.8412
31.95	3.8417
31.96	3.8423
31.98	3.8427
31.99	3.8431
32.01	3.8434
32.02	3.8439
32.05	3.8444
32.06	3.8448
32.08	3.8453
32.09	3.8458
32.11	3.8462
32.13	3.8468
32.14	3.8473
32.16	3.8479
32.17	3.8483
32.19	3.8486
32.21	3.8492
32.23	3.8497
32.24	3.8502
32.26	3.8511
32.27	3.8519
32.29	3.8527
32.30	3.8532
32.33	3.8538
32.34	3.8544
32.36	3.8549
32.38	3.8552
32.40	3.8557
32.41	3.8562
32.43	3.8566
32.45	3.8572
32.46	3.8578
32.48	3.8583
32.49	3.8587
32.51	3.8589
32.53	3.8592
32.55	3.8595
32.57	3.8600
32.58	3.8606
32.59	3.8611
32.60	3.8618
32.62	3.8623
32.64	3.8629
32.65	3.8636
32.67	3.8643
32.69	3.8649
32.71	3.8654
32.73	3.8661
32.74	3.8665
32.76	3.8670
32.77	3.8675
32.79	3.8681
32.81	3.8685
32.83	3.8690
32.84	3.8695
32.86	3.8701
32.87	3.8705
32.89	3.8712
32.91	3.8716
32.93	3.8721
32.95	3.8728
32.96	3.8735
32.98	3.8742
32.99	3.8748
33.01	3.8755
33.02	3.8761
33.04	3.8766
33.06	3.8773
33.08	3.8778
33.09	3.8782
33.11	3.8786
33.13	3.8793
33.14	3.8798
33.16	3.8804
33.17	3.8809
33.19	3.8814
33.21	3.8817
33.23	3.8822
33.24	3.8826
33.26	3.8831
33.27	3.8838
33.29	3.8846
33.31	3.8853
33.33	3.8860
33.34	3.8869
33.36	3.8873
33.37	3.8879
33.39	3.8883
33.40	3.8888
33.42	3.8895
33.44	3.8899
33.46	3.8905
33.48	3.8908
33.49	3.8915
33.50	3.8921
33.52	3.8926
33.55	3.8931
33.56	3.8935
33.57	3.8940
33.59	3.8945
33.61	3.8949
33.63	3.8956
33.64	3.8964
33.65	3.8970
33.67	3.8977
33.69	3.8982
33.71	3.8988
33.72	3.8995
33.74	3.9001
33.75	3.9007
33.77	3.9013
33.78	3.9017
33.80	3.9023
33.82	3.9027
33.84	3.9032
33.85	3.9036
33.88	3.9043
33.89	3.9045
33.90	3.9051
33.92	3.9054
33.94	3.9059
33.95	3.9065
33.97	3.9070
33.99	3.9075
34.00	3.9081
34.02	3.9089
34.04	3.9095
34.05	3.9100
34.07	3.9104
34.09	3.9110
34.11	3.9116
34.13	3.9122
34.14	3.9128
34.16	3.9131
34.18	3.9138
34.19	3.9142
34.21	3.9148
34.23	3.9153
34.24	3.9158
34.25	3.9161
34.27	3.9165
34.29	3.9170
34.31	3.9174
34.33	3.9178
34.34	3.9184
34.35	3.9190
34.37	3.9198
34.39	3.9203
34.40	3.9209
34.42	3.9218
34.43	3.9224
34.45	3.9230
34.47	3.9236
34.48	3.9242
34.50	3.9246
34.52	3.9251
34.54	3.9255
34.56	3.9259
34.58	3.9264
34.59	3.9269
34.61	3.9274
34.63	3.9279
34.64	3.9284
34.65	3.9289
34.67	3.9295
34.69	3.9303
34.70	3.9307
34.72	3.9315
34.74	3.9321
34.76	3.9329
34.77	3.9334
34.79	3.9341
34.81	3.9347
34.82	3.9353
34.83	3.9359
34.85	3.9363
34.87	3.9368
34.89	3.9374
34.90	3.9379
34.92	3.9384
34.93	3.9390
34.95	3.9394
34.96	3.9399
34.98	3.9405
35.00	3.9407
35.02	3.9412
35.04	3.9417
35.05	3.9424
35.07	3.9431
35.09	3.9439
35.10	3.9444
35.12	3.9451
35.14	3.9455
35.15	3.9459
35.17	3.9466
35.18	3.9470
35.20	3.9473
35.22	3.9478
35.24	3.9483
35.25	3.9488
35.27	3.9494
35.29	3.9500
35.30	3.9505
35.32	3.9509
35.34	3.9514
35.35	3.9519
35.36	3.9526
35.38	3.9531
35.40	3.9537
35.42	3.9544
35.44	3.9552
35.45	3.9560
35.46	3.9566
35.48	3.9574
35.50	3.9580
35.52	3.9587
35.53	3.9591
35.55	3.9596
35.57	3.9601
35.59	3.9607
35.60	3.9613
35.62	3.9618
35.64	3.9623
35.65	3.9627
35.67	3.9633
35.68	3.9639
35.70	3.9644
35.72	3.9647
35.73	3.9654
35.75	3.9659
35.77	3.9666
35.78	3.9673
35.80	3.9680
35.82	3.9687
35.83	3.9693
35.85	3.9700
35.87	3.9706
35.89	3.9712
35.90	3.9716
35.92	3.9724
35.94	3.9727
35.95	3.9731
35.96	3.9735
35.98	3.9742
36.00	3.9747
36.02	3.9750
36.03	3.9755
36.05	3.9759
36.07	3.9763
36.09	3.9769
36.10	3.9777
36.11	3.9783
36.13	3.9790
36.14	3.9794
36.16	3.9803
36.18	3.9811
36.20	3.9815
36.22	3.9821
36.23	3.9824
36.25	3.9829
36.27	3.9833
36.29	3.9838
36.30	3.9843
36.31	3.9848
36.33	3.9854
36.35	3.9858
36.37	3.9862
36.38	3.9867
36.40	3.9872
36.42	3.9876
36.43	3.9882
36.45	3.9887
36.47	3.9895
36.48	3.9902
36.50	3.9908
36.52	3.9914
36.53	3.9920
36.55	3.9924
36.57	3.9931
36.58	3.9935
36.59	3.9942
36.62	3.9947
36.63	3.9952
36.65	3.9958
36.66	3.9962
36.68	3.9967
36.70	3.9971
36.72	3.9975
36.73	3.9979
36.75	3.9983
36.77	3.9988
36.78	3.9993
36.80	3.9999
36.82	4.0008
36.83	4.0015
36.85	4.0021
36.87	4.0029
36.88	4.0036
36.90	4.0042
36.92	4.0050
36.94	4.0056
36.95	4.0063
36.97	4.0069
36.99	4.0076
37.00	4.0080
37.02	4.0085
37.03	4.0090
37.05	4.0092
37.07	4.0097
37.08	4.0103
37.10	4.0109
37.12	4.0114
37.13	4.0119
37.15	4.0125
37.17	4.0132
37.19	4.0140
37.20	4.0148
37.22	4.0155
37.23	4.0159
37.24	4.0166
37.27	4.0175
37.28	4.0180
37.30	4.0183
37.32	4.0193
37.33	4.0197
37.35	4.0201
37.37	4.0208
37.38	4.0211
37.40	4.0217
37.41	4.0223
37.43	4.0228
37.44	4.0232
37.46	4.0239
37.48	4.0245
37.50	4.0250
37.52	4.0255
37.53	4.0263
37.55	4.0269
37.57	4.0275
37.58	4.0282
37.60	4.0290
37.61	4.0295
37.63	4.0301
37.65	4.0307
37.67	4.0312
37.68	4.0316
37.70	4.0319
37.72	4.0322
37.73	4.0326
37.75	4.0331
37.77	4.0335
37.79	4.0339
37.80	4.0345
37.82	4.0350
37.83	4.0353
37.85	4.0360
37.87	4.0368
37.88	4.0374
37.90	4.0381
37.92	4.0386
37.93	4.0395
37.95	4.0399
37.97	4.0406
37.98	4.0413
38.00	4.0419
38.02	4.0424
38.04	4.0429
38.05	4.0433
38.07	4.0437
38.09	4.0441
38.10	4.0444
38.12	4.0448
38.13	4.0453
38.15	4.0456
38.16	4.0462
38.18	4.0465
38.20	4.0470
38.22	4.0477
38.24	4.0485
38.25	4.0491
38.27	4.0501
38.29	4.0506
38.30	4.0511
38.31	4.0516
38.33	4.0521
38.35	4.0526
38.36	4.0531
38.38	4.0532
38.40	4.0537
38.42	4.0541
38.43	4.0546
38.45	4.0551
38.46	4.0557
38.48	4.0563
38.50	4.0565
38.52	4.0571
38.53	4.0576
38.55	4.0582
38.57	4.0591
38.58	4.0597
38.59	4.0604
38.61	4.0611
38.63	4.0618
38.65	4.0624
38.66	4.0631
38.68	4.0639
38.70	4.0645
38.71	4.0652
38.73	4.0657
38.74	4.0663
38.77	4.0670
38.78	4.0673
38.80	4.0678
38.82	4.0682
38.83	4.0687
38.84	4.0693
38.87	4.0699
38.88	4.0705
38.90	4.0711
38.92	4.0718
38.93	4.0725
38.95	4.0732
38.97	4.0740
38.98	4.0745
39.00	4.0753
39.02	4.0760
39.03	4.0764
39.04	4.0773
39.06	4.0782
39.08	4.0787
39.09	4.0793
39.12	4.0799
39.13	4.0802
39.15	4.0809
39.16	4.0814
39.18	4.0820
39.20	4.0824
39.21	4.0829
39.23	4.0833
39.25	4.0841
39.26	4.0850
39.28	4.0857
39.30	4.0864
39.31	4.0874
39.33	4.0881
39.35	4.0885
39.37	4.0892
39.38	4.0898
39.40	4.0903
39.42	4.0908
39.43	4.0913
39.45	4.0919
39.47	4.0924
39.48	4.0929
39.50	4.0934
39.52	4.0941
39.53	4.0944
39.55	4.0949
39.56	4.0955
39.58	4.0959
39.59	4.0965
39.61	4.0973
39.63	4.0978
39.65	4.0985
39.67	4.0991
39.68	4.0998
39.70	4.1005
39.72	4.1009
39.73	4.1016
39.74	4.1022
39.76	4.1027
39.78	4.1030
39.80	4.1038
39.81	4.1043
39.83	4.1049
39.85	4.1054
39.87	4.1058
39.88	4.1062
39.90	4.1069
39.92	4.1072
39.93	4.1077
39.95	4.1084
39.96	4.1090
39.98	4.1098
40.00	4.1104
40.01	4.1112
40.03	4.1118
40.05	4.1123
40.06	4.1130
40.08	4.1135
40.09	4.1139
40.12	4.1145
40.14	4.1151
40.15	4.1154
40.17	4.1159
40.18	4.1164
40.20	4.1168
40.22	4.1174
40.23	4.1177
40.25	4.1183
40.27	4.1188
40.28	4.1194
40.30	4.1202
40.31	4.1208
40.33	4.1214
40.34	4.1223
40.36	4.1231
40.38	4.1239
40.40	4.1243
40.41	4.1251
40.43	4.1256
40.45	4.1263
40.46	4.1269
40.48	4.1274
40.49	4.1280
40.52	4.1287
40.53	4.1292
40.55	4.1296
40.56	4.1304
40.58	4.1309
40.59	4.1314
40.62	4.1318
40.63	4.1324
40.65	4.1329
40.66	4.1336
40.68	4.1345
40.70	4.1352
40.72	4.1360
40.73	4.1365
40.74	4.1372
40.76	4.1378
40.78	4.1383
40.80	4.1388
40.81	4.1393
40.83	4.1399
40.84	4.1406
40.86	4.1411
40.88	4.1418
40.90	4.1423
40.91	4.1429
40.93	4.1435
40.94	4.1441
40.96	4.1446
40.98	4.1452
40.99	4.1457
41.02	4.1465
41.03	4.1470
41.05	4.1476
41.06	4.1483
41.08	4.1489
41.09	4.1497
41.11	4.1502
41.13	4.1509
41.15	4.1515
41.16	4.1520
41.18	4.1527
41.20	4.1534
41.21	4.1538
41.23	4.1544
41.24	4.1550
41.26	4.1557
41.27	4.1560
41.29	4.1565
41.31	4.1571
41.33	4.1576
41.34	4.1582
41.36	4.1587
41.38	4.1592
41.39	4.1598
41.41	4.1605
41.43	4.1610
41.44	4.1616
41.46	4.1623
41.48	4.1630
41.49	4.1637
41.51	4.1643
41.52	4.1647
41.54	4.1652
41.56	4.1656
41.58	4.1661
41.59	4.1666
41.61	4.1673
41.63	4.1679
41.65	4.1685
41.67	4.1689
41.68	4.1695
41.69	4.1702
41.71	4.1709
41.73	4.1715
41.74	4.1723
41.76	4.1730
41.77	4.1736
41.80	4.1742
41.81	4.1751
41.83	4.1756
41.85	4.1762
41.87	4.1767
41.88	4.1772
41.90	4.1776
41.91	4.1782
41.93	4.1786
41.95	4.1793
41.96	4.1797
41.98	4.1803
41.99	4.1809
42.01	4.1814
42.02	4.1819
42.04	4.1827
42.06	4.1837
42.08	4.1844
42.09	4.1852
42.11	4.1859
42.13	4.1865
42.14	4.1871
42.16	4.1875
42.18	4.1882
42.20	4.1889
42.21	4.1892
42.23	4.1897
42.24	4.1903
42.26	4.1912
42.27	4.1916
42.30	4.1923
42.31	4.1928
42.32	4.1933
42.33	4.1937
42.35	4.1944
42.38	4.1949
42.39	4.1956
42.41	4.1962
42.43	4.1969
42.44	4.1976
42.46	4.1982
42.48	4.1989
42.49	4.1996
42.52	4.2002
42.52	4.2008
42.55	4.2013
42.56	4.2020
42.58	4.2026
42.59	4.2032
42.61	4.2039
42.63	4.2043
42.64	4.2050
42.66	4.2055
42.68	4.2058
42.69	4.2062
42.71	4.2067
42.73	4.2073
42.74	4.2081
42.75	4.2089
42.78	4.2095
42.80	4.2103
42.81	4.2109
42.83	4.2116
42.84	4.2123
42.86	4.2127
42.88	4.2133
42.89	4.2136
42.91	4.2141
42.93	4.2147
42.94	4.2154
42.96	4.2158
42.98	4.2164
42.99	4.2171
43.01	4.2175
43.03	4.2179
43.04	4.2184
43.06	4.2188
43.08	4.2196
43.09	4.2202
43.10	4.2210
43.13	4.2218
43.14	4.2227
43.16	4.2233
43.18	4.2240
43.19	4.2245
43.21	4.2250
43.22	4.2256
43.24	4.2263
43.25	4.2268
43.27	4.2275
43.29	4.2280
43.31	4.2285
43.33	4.2291
43.34	4.2297
43.36	4.2303
43.38	4.2308
43.40	4.2314
43.41	4.2319
43.43	4.2326
43.44	4.2332
43.45	4.2341
43.48	4.2349
43.49	4.2356
43.51	4.2361
43.52	4.2368
43.54	4.2375
43.56	4.2380
43.58	4.2387
43.59	4.2392
43.61	4.2400
43.63	4.2407
43.64	4.2414
43.65	4.2421
43.68	4.2425
43.70	4.2430
43.71	4.2435
43.73	4.2442
43.74	4.2445
43.76	4.2451
43.77	4.2457
43.79	4.2464
43.80	4.2471
43.82	4.2477
43.84	4.2483
43.85	4.2487
43.87	4.2495
43.89	4.2500
43.91	4.2507
43.93	4.2515
43.94	4.2522
43.96	4.2527
43.98	4.2532
43.99	4.2538
44.01	4.2544
44.02	4.2550
44.04	4.2553
44.05	4.2557
44.07	4.2563
44.09	4.2569
44.10	4.2575
44.12	4.2582
44.14	4.2591
44.16	4.2599
44.18	4.2607
44.19	4.2613
44.21	4.2618
44.23	4.2623
44.24	4.2631
44.26	4.2636
44.27	4.2641
44.29	4.2647
44.31	4.2652
44.32	4.2658
44.34	4.2662
44.36	4.2668
44.37	4.2674
44.39	4.2679
44.40	4.2686
44.43	4.2690
44.44	4.2696
44.46	4.2702
44.47	4.2708
44.49	4.2716
44.50	4.2723
44.52	4.2730
44.54	4.2737
44.55	4.2743
44.57	4.2749
44.58	4.2754
44.60	4.2760
44.62	4.2767
44.64	4.2773
44.65	4.2779
44.66	4.2785
44.68	4.2789
44.70	4.2793
44.73	4.2799
44.74	4.2803
44.75	4.2809
44.77	4.2813
44.79	4.2819
44.80	4.2825
44.82	4.2832
44.84	4.2840
44.85	4.2847
44.87	4.2854
44.88	4.2861
44.90	4.2867
44.92	4.2874
44.94	4.2882
44.96	4.2890
44.98	4.2896
44.99	4.2902
45.00	4.2907
45.02	4.2911
45.04	4.2915
45.05	4.2920
45.07	4.2924
45.09	4.2930
45.11	4.2935
45.13	4.2940
45.14	4.2948
45.16	4.2954
45.17	4.2963
45.19	4.2969
45.20	4.2975
45.22	4.2983
45.24	4.2991
45.25	4.2999
45.27	4.3004
45.29	4.3011
45.30	4.3015
45.32	4.3022
45.34	4.3029
45.35	4.3034
45.37	4.3039
45.39	4.3045
45.40	4.3049
45.43	4.3055
45.43	4.3060
45.45	4.3065
45.47	4.3072
45.49	4.3078
45.50	4.3084
45.52	4.3093
45.53	4.3100
45.55	4.3107
45.57	4.3115
45.59	4.3122
45.60	4.3130
45.62	4.3139
45.64	4.3145
45.65	4.3151
45.67	4.3156
45.68	4.3164
45.70	4.3168
45.72	4.3171
45.74	4.3179
45.75	4.3184
45.77	4.3189
45.78	4.3196
45.80	4.3201
45.82	4.3207
45.84	4.3215
45.85	4.3222
45.87	4.3231
45.89	4.3240
45.90	4.3247
45.92	4.3253
45.94	4.3261
45.95	4.3267
45.98	4.3274
45.99	4.3279
46.00	4.3286
46.02	4.3290
46.03	4.3297
46.05	4.3302
46.07	4.3308
46.09	4.3313
46.10	4.3319
46.12	4.3324
46.14	4.3330
46.16	4.3333
46.17	4.3340
46.19	4.3347
46.21	4.3355
46.22	4.3361
46.24	4.3369
46.25	4.3373
46.27	4.3382
46.29	4.3387
46.30	4.3395
46.32	4.3400
46.34	4.3405
46.35	4.3410
46.38	4.3416
46.39	4.3420
46.41	4.3426
46.42	4.3432
46.43	4.3438
46.45	4.3442
46.47	4.3448
46.49	4.3453
46.50	4.3457
46.52	4.3463
46.54	4.3471
46.55	4.3479
46.57	4.3487
46.59	4.3493
46.60	4.3501
46.63	4.3507
46.64	4.3514
46.65	4.3520
46.67	4.3525
46.68	4.3532
46.70	4.3538
46.73	4.3542
46.74	4.3548
46.75	4.3553
46.77	4.3559
46.79	4.3565
46.80	4.3571
46.82	4.3577
46.84	4.3583
46.87	4.3589
46.88	4.3594
46.89	4.3603
46.90	4.3610
46.92	4.3617
46.94	4.3623
46.95	4.3630
46.97	4.3638
46.98	4.3645
47.00	4.3650
47.02	4.3656
47.04	4.3661
47.05	4.3665
47.07	4.3673
47.08	4.3678
47.11	4.3681
47.12	4.3687
47.14	4.3692
47.15	4.3697
47.17	4.3700
47.19	4.3706
47.20	4.3711
47.22	4.3718
47.24	4.3728
47.25	4.3736
47.26	4.3741
47.28	4.3749
47.30	4.3757
47.32	4.3765
47.33	4.3773
47.35	4.3778
47.37	4.3784
47.38	4.3788
47.40	4.3794
47.42	4.3801
47.43	4.3806
47.45	4.3812
47.47	4.3818
47.48	4.3822
47.50	4.3829
47.52	4.3834
47.54	4.3838
47.56	4.3845
47.57	4.3854
47.58	4.3861
47.60	4.3868
47.62	4.3876
47.64	4.3883
47.65	4.3891
47.67	4.3899
47.68	4.3905
47.70	4.3909
47.72	4.3916
47.74	4.3923
47.75	4.3930
47.77	4.3934
47.79	4.3942
47.80	4.3947
47.82	4.3953
47.84	4.3959
47.85	4.3962
47.87	4.3967
47.89	4.3975
47.91	4.3981
47.92	4.3989
47.94	4.3997
47.95	4.4005
47.97	4.4013
47.99	4.4019
48.00	4.4027
48.02	4.4033
48.03	4.4038
48.05	4.4045
48.07	4.4051
48.09	4.4056
48.10	4.4062
48.12	4.4067
48.14	4.4072
48.15	4.4078
48.17	4.4085
48.19	4.4091
48.20	4.4096
48.22	4.4104
48.23	4.4108
48.25	4.4118
48.27	4.4127
48.28	4.4134
48.30	4.4143
48.32	4.4148
48.34	4.4157
48.36	4.4158
48.37	4.4169
48.38	4.4171
48.40	4.4177
48.42	4.4183
48.43	4.4192
48.45	4.4193
48.47	4.4198
48.49	4.4202
48.50	4.4208
48.52	4.4214
48.54	4.4219
48.55	4.4228
48.57	4.4235
48.59	4.4235
48.60	4.4242
48.62	4.4252
48.63	4.4262
48.65	4.4263
48.67	4.4272
48.69	4.4278
48.70	4.4280
48.71	4.4289
48.73	4.4293
48.75	4.4298
48.77	4.4304
48.79	4.4308
48.80	4.4313
48.82	4.4318
48.84	4.4324
48.85	4.4329
48.87	4.4334
48.88	4.4339
48.90	4.4345
48.92	4.4351
48.94	4.4356
48.95	4.4365
48.97	4.4371
48.98	4.4377
49.00	4.4385
49.02	4.4390
49.04	4.4396
49.05	4.4401
49.07	4.4406
49.08	4.4412
49.10	4.4418
49.12	4.4426
49.14	4.4430
49.15	4.4435
49.17	4.4440
49.18	4.4445
49.20	4.4449
49.22	4.4455
49.23	4.4459
49.25	4.4464
49.26	4.4471
49.28	4.4478
49.30	4.4485
49.32	4.4492
49.33	4.4500
49.35	4.4506
49.36	4.4514
49.38	4.4519
49.40	4.4526
49.42	4.4531
49.43	4.4535
49.45	4.4542
49.47	4.4546
49.48	4.4550
49.50	4.4557
49.52	4.4561
49.54	4.4566
49.55	4.4572
49.57	4.4577
49.58	4.4582
49.60	4.4590
49.62	4.4598
49.63	4.4605
49.65	4.4613
49.67	4.4617
49.68	4.4624
49.70	4.4632
49.72	4.4640
49.74	4.4648
49.76	4.4655
49.77	4.4662
49.78	4.4666
49.80	4.4673
49.82	4.4679
49.84	4.4683
49.85	4.4689
49.87	4.4694
49.88	4.4700
49.90	4.4703
49.92	4.4709
49.93	4.4716
49.95	4.4725
49.97	4.4731
49.99	4.4738
50.00	4.4745
50.02	4.4753
50.03	4.4761
50.05	4.4768
50.07	4.4775
50.08	4.4781
50.10	4.4788
50.12	4.4794
50.13	4.4797
50.15	4.4804
50.17	4.4810
50.19	4.4816
50.20	4.4821
50.22	4.4827
50.23	4.4830
50.25	4.4835
50.27	4.4841
50.28	4.4845
50.30	4.4851
50.32	4.4860
50.34	4.4867
50.35	4.4874
50.37	4.4881
50.39	4.4885
50.40	4.4891
50.41	4.4897
50.43	4.4903
50.45	4.4909
50.47	4.4915
50.48	4.4920
50.50	4.4926
50.52	4.4932
50.53	4.4937
50.54	4.4941
50.57	4.4946
50.59	4.4952
50.60	4.4960
50.62	4.4965
50.64	4.4973
50.65	4.4978
50.67	4.4984
50.68	4.4992
50.70	4.4997
50.72	4.5004
50.73	4.5011
50.75	4.5016
50.77	4.5024
50.78	4.5031
50.80	4.5037
50.81	4.5044
50.83	4.5050
50.85	4.5055
50.87	4.5062
50.88	4.5066
50.90	4.5071
50.92	4.5077
50.93	4.5084
50.95	4.5088
50.97	4.5095
50.98	4.5102
51.00	4.5111
51.02	4.5118
51.04	4.5127
51.05	4.5132
51.07	4.5139
51.08	4.5146
51.10	4.5151
51.12	4.5157
51.13	4.5162
51.15	4.5169
51.17	4.5173
51.18	4.5178
51.20	4.5185
51.22	4.5192
51.23	4.5198
51.25	4.5206
51.27	4.5211
51.28	4.5217
51.30	4.5223
51.32	4.5230
51.33	4.5237
51.35	4.5243
51.37	4.5251
51.38	4.5257
51.40	4.5263
51.42	4.5269
51.43	4.5274
51.45	4.5280
51.47	4.5285
51.48	4.5292
51.50	4.5299
51.52	4.5304
51.53	4.5309
51.55	4.5315
51.56	4.5320
51.58	4.5325
51.60	4.5329
51.62	4.5335
51.63	4.5340
51.65	4.5347
51.67	4.5353
51.68	4.5358
51.70	4.5366
51.72	4.5373
51.73	4.5379
51.75	4.5385
51.77	4.5390
51.78	4.5398
51.80	4.5402
51.82	4.5409
51.83	4.5412
51.85	4.5419
51.87	4.5425
51.88	4.5428
51.90	4.5433
51.92	4.5439
51.93	4.5444
51.95	4.5449
51.97	4.5455
51.98	4.5458
52.00	4.5465
52.02	4.5469
52.03	4.5477
52.05	4.5483
52.07	4.5490
52.09	4.5496
52.10	4.5503
52.11	4.5507
52.13	4.5515
52.15	4.5518
52.17	4.5524
52.18	4.5528
52.20	4.5535
52.22	4.5543
52.23	4.5547
52.25	4.5554
52.26	4.5560
52.28	4.5564
52.30	4.5570
52.32	4.5574
52.33	4.5581
52.35	4.5588
52.36	4.5595
52.38	4.5600
52.40	4.5607
52.41	4.5613
52.43	4.5618
52.45	4.5625
52.47	4.5632
52.48	4.5638
52.50	4.5644
52.52	4.5650
52.53	4.5656
52.55	4.5660
52.57	4.5666
52.58	4.5669
52.60	4.5675
52.62	4.5680
52.63	4.5685
52.65	4.5692
52.67	4.5696
52.68	4.5703
52.70	4.5710
52.71	4.5718
52.73	4.5725
52.75	4.5730
52.77	4.5737
52.78	4.5743
52.80	4.5749
52.82	4.5757
52.83	4.5763
52.85	4.5769
52.87	4.5774
52.88	4.5779
52.90	4.5786
52.91	4.5788
52.93	4.5792
52.95	4.5799
52.97	4.5802
52.98	4.5807
53.00	4.5812
53.01	4.5816
53.03	4.5823
53.05	4.5833
53.07	4.5839
53.08	4.5846
53.09	4.5853
53.11	4.5859
53.13	4.5866
53.15	4.5873
53.16	4.5877
53.18	4.5883
53.19	4.5888
53.21	4.5892
53.23	4.5896
53.25	4.5903
53.26	4.5908
53.28	4.5914
53.30	4.5919
53.31	4.5923
53.33	4.5928
53.34	4.5933
53.37	4.5940
53.38	4.5946
53.40	4.5953
53.41	4.5959
53.43	4.5966
53.45	4.5971
53.46	4.5976
53.48	4.5983
53.50	4.5990
53.51	4.5996
53.53	4.6000
53.54	4.6005
53.56	4.6008
53.58	4.6015
53.59	4.6021
53.61	4.6027
53.63	4.6033
53.65	4.6039
53.66	4.6044
53.68	4.6049
53.69	4.6055
53.71	4.6061
53.73	4.6067
53.75	4.6077
53.77	4.6083
53.78	4.6092
53.80	4.6097
53.81	4.6104
53.83	4.6112
53.84	4.6118
53.86	4.6122
53.88	4.6129
53.90	4.6133
53.91	4.6135
53.93	4.6142
53.94	4.6147
53.96	4.6150
53.98	4.6157
54.00	4.6161
54.01	4.6166
54.03	4.6173
54.04	4.6178
54.06	4.6185
54.08	4.6191
54.09	4.6198
54.11	4.6203
54.13	4.6209
54.15	4.6215
54.16	4.6221
54.18	4.6227
54.20	4.6231
54.21	4.6236
54.23	4.6241
54.24	4.6246
54.26	4.6252
54.28	4.6255
54.30	4.6260
54.31	4.6264
54.33	4.6268
54.34	4.6273
54.36	4.6280
54.38	4.6286
54.40	4.6291
54.41	4.6299
54.43	4.6307
54.45	4.6314
54.46	4.6321
54.48	4.6327
54.50	4.6332
54.51	4.6338
54.52	4.6345
54.54	4.6351
54.56	4.6356
54.58	4.6359
54.59	4.6365
54.61	4.6369
54.63	4.6373
54.65	4.6378
54.67	4.6382
54.68	4.6386
54.70	4.6390
54.71	4.6394
54.73	4.6401
54.75	4.6409
54.76	4.6415
54.77	4.6422
54.79	4.6430
54.81	4.6435
54.83	4.6443
54.84	4.6448
54.86	4.6454
54.88	4.6458
54.90	4.6466
54.91	4.6471
54.93	4.6477
54.94	4.6482
54.97	4.6487
54.98	4.6491
55.00	4.6497
55.01	4.6502
55.03	4.6507
55.05	4.6512
55.06	4.6520
55.08	4.6528
55.09	4.6535
55.12	4.6542
55.13	4.6548
55.15	4.6555
55.16	4.6561
55.18	4.6566
55.20	4.6574
55.22	4.6577
55.24	4.6584
55.25	4.6588
55.26	4.6591
55.28	4.6597
55.30	4.6604
55.32	4.6609
55.33	4.6615
55.34	4.6620
55.36	4.6624
55.38	4.6630
55.39	4.6638
55.41	4.6645
55.44	4.6651
55.44	4.6657
55.45	4.6664
55.47	4.6670
55.50	4.6676
55.52	4.6683
55.54	4.6691
55.55	4.6697
55.55	4.6702
55.57	4.6708
55.58	4.6713
55.61	4.6719
55.63	4.6723
55.64	4.6727
55.66	4.6732
55.68	4.6738
55.70	4.6743
55.71	4.6747
55.73	4.6754
55.75	4.6760
55.76	4.6769
55.78	4.6774
55.80	4.6783
55.81	4.6791
55.83	4.6798
55.85	4.6802
55.86	4.6809
55.88	4.6815
55.89	4.6822
55.91	4.6827
55.93	4.6834
55.95	4.6841
55.96	4.6847
55.98	4.6853
55.99	4.6858
56.01	4.6864
56.03	4.6871
56.05	4.6876
56.06	4.6883
56.08	4.6891
56.09	4.6902
56.11	4.6910
56.13	4.6918
56.14	4.6925
56.16	4.6932
56.18	4.6939
56.19	4.6948
56.21	4.6955
56.23	4.6963
56.25	4.6969
56.26	4.6974
56.27	4.6981
56.29	4.6989
56.31	4.6993
56.33	4.7001
56.34	4.7008
56.35	4.7015
56.38	4.7022
56.39	4.7029
56.41	4.7038
56.43	4.7047
56.45	4.7058
56.46	4.7066
56.48	4.7077
56.50	4.7087
56.51	4.7096
56.52	4.7105
56.54	4.7112
56.56	4.7119
56.58	4.7128
56.59	4.7135
56.61	4.7142
56.63	4.7148
56.64	4.7153
56.66	4.7160
56.68	4.7166
56.69	4.7172
56.71	4.7176
56.73	4.7182
56.74	4.7187
56.76	4.7194
56.78	4.7200
56.80	4.7205
56.81	4.7210
56.83	4.7215
56.84	4.7220
56.86	4.7226
56.88	4.7232
56.90	4.7236
56.91	4.7241
56.93	4.7245
56.95	4.7248
56.96	4.7251
56.98	4.7255
56.99	4.7257
57.00	4.7260
57.02	4.7264
57.05	4.7268
57.06	4.7272
57.08	4.7277
57.09	4.7280
57.11	4.7286
57.13	4.7293
57.14	4.7299
57.16	4.7304
57.18	4.7306
57.19	4.7313
57.21	4.7317
57.23	4.7320
57.25	4.7325
57.26	4.7332
57.27	4.7335
57.29	4.7340
57.31	4.7344
57.33	4.7348
57.34	4.7354
57.36	4.7355
57.38	4.7359
57.39	4.7363
57.41	4.7369
57.43	4.7375
57.44	4.7382
57.46	4.7388
57.48	4.7393
57.49	4.7398
57.51	4.7404
57.52	4.7409
57.54	4.7415
57.56	4.7420
57.58	4.7424
57.59	4.7430
57.61	4.7434
57.63	4.7440
57.64	4.7444
57.66	4.7448
57.68	4.7453
57.69	4.7457
57.70	4.7463
57.72	4.7467
57.74	4.7473
57.76	4.7479
57.77	4.7484
57.79	4.7491
57.81	4.7498
57.83	4.7503
57.84	4.7510
57.86	4.7516
57.88	4.7521
57.90	4.7525
57.91	4.7528
57.93	4.7535
57.94	4.7540
57.96	4.7545
57.98	4.7551
58.00	4.7552
58.01	4.7558
58.03	4.7564
58.05	4.7566
58.06	4.7569
58.08	4.7574
58.09	4.7579
58.11	4.7587
58.13	4.7593
58.14	4.7598
58.16	4.7605
58.18	4.7612
58.19	4.7618
58.21	4.7625
58.23	4.7631
58.24	4.7637
58.26	4.7642
58.27	4.7647
58.29	4.7652
58.30	4.7658
58.33	4.7664
58.34	4.7668
58.36	4.7672
58.38	4.7676
58.40	4.7680
58.41	4.7683
58.43	4.7688
58.45	4.7694
58.46	4.7701
58.48	4.7708
58.50	4.7715
58.51	4.7721
58.53	4.7728
58.55	4.7733
58.56	4.7739
58.58	4.7743
58.59	4.7749
58.62	4.7754
58.63	4.7759
58.64	4.7764
58.66	4.7769
58.68	4.7774
58.69	4.7779
58.71	4.7784
58.73	4.7789
58.75	4.7793
58.76	4.7799
58.77	4.7805
58.79	4.7810
58.81	4.7817
58.83	4.7822
58.84	4.7830
58.86	4.7835
58.88	4.7844
58.90	4.7850
58.91	4.7857
58.93	4.7864
58.94	4.7870
58.96	4.7878
58.97	4.7884
58.99	4.7888
59.01	4.7890
59.02	4.7897
59.04	4.7901
59.06	4.7905
59.08	4.7911
59.09	4.7916
59.10	4.7924
59.13	4.7933
59.14	4.7941
59.16	4.7947
59.18	4.7953
59.19	4.7958
59.21	4.7962
59.23	4.7967
59.24	4.7974
59.26	4.7981
59.28	4.7987
59.29	4.7992
59.31	4.7999
59.33	4.8005
59.34	4.8010
59.36	4.8015
59.38	4.8022
59.39	4.8025
59.41	4.8030
59.43	4.8035
59.44	4.8040
59.46	4.8046
59.48	4.8053
59.49	4.8060
59.51	4.8066
59.52	4.8073
59.54	4.8078
59.56	4.8083
59.58	4.8088
59.59	4.8093
59.60	4.8099
59.62	4.8102
59.64	4.8106
59.66	4.8109
59.68	4.8112
59.69	4.8117
59.71	4.8121
59.73	4.8126
59.75	4.8131
59.76	4.8134
59.78	4.8139
59.79	4.8145
59.80	4.8152
59.82	4.8159
59.84	4.8166
59.85	4.8171
59.88	4.8176
59.89	4.8181
59.91	4.8186
59.93	4.8193
59.94	4.8197
59.96	4.8202
59.97	4.8207
59.99	4.8212
60.01	4.8218
60.03	4.8223
60.04	4.8229
60.06	4.8234
60.08	4.8237
60.09	4.8240
60.10	4.8246
60.13	4.8253
60.14	4.8259
60.15	4.8266
60.17	4.8274
60.19	4.8279
60.21	4.8285
60.23	4.8291
60.24	4.8297
60.26	4.8302
60.27	4.8307
60.29	4.8311
60.31	4.8316
60.33	4.8321
60.34	4.8327
60.35	4.8331
60.37	4.8336
60.39	4.8341
60.41	4.8346
60.43	4.8351
60.44	4.8356
60.46	4.8363
60.48	4.8369
60.49	4.8376
60.50	4.8383
60.52	4.8389
60.54	4.8392
60.55	4.8398
60.57	4.8404
60.59	4.8409
60.60	4.8416
60.62	4.8423
60.64	4.8428
60.66	4.8433
60.68	4.8440
60.69	4.8445
60.71	4.8450
60.73	4.8456
60.74	4.8461
60.75	4.8468
60.77	4.8477
60.79	4.8485
60.81	4.8491
60.83	4.8498
60.84	4.8504
60.86	4.8511
60.88	4.8519
60.89	4.8524
60.90	4.8529
60.92	4.8535
60.93	4.8541
60.95	4.8546
60.97	4.8552
60.98	4.8556
61.00	4.8562
61.02	4.8568
61.04	4.8573
61.05	4.8579
61.07	4.8585
61.09	4.8590
61.10	4.8597
61.13	4.8602
61.14	4.8609
61.15	4.8617
61.18	4.8623
61.19	4.8628
61.21	4.8635
61.22	4.8642
61.23	4.8648
61.25	4.8654
61.27	4.8659
61.29	4.8663
61.31	4.8668
61.32	4.8675
61.34	4.8679
61.35	4.8686
61.37	4.8693
61.39	4.8697
61.40	4.8702
61.43	4.8708
61.44	4.8713
61.46	4.8721
61.47	4.8729
61.48	4.8735
61.50	4.8744
61.52	4.8752
61.54	4.8758
61.55	4.8766
61.57	4.8774
61.59	4.8782
61.60	4.8789
61.62	4.8796
61.63	4.8803
61.65	4.8809
61.67	4.8815
61.68	4.8820
61.70	4.8826
61.72	4.8832
61.74	4.8837
61.75	4.8842
61.77	4.8848
61.79	4.8854
61.80	4.8862
61.83	4.8871
61.84	4.8877
61.85	4.8884
61.87	4.8890
61.88	4.8897
61.90	4.8904
61.92	4.8909
61.93	4.8913
61.95	4.8918
61.97	4.8924
61.99	4.8930
62.00	4.8937
62.02	4.8942
62.04	4.8948
62.05	4.8953
62.07	4.8959
62.09	4.8964
62.10	4.8971
62.12	4.8978
62.14	4.8986
62.15	4.8993
62.17	4.8997
62.19	4.9003
62.20	4.9010
62.22	4.9015
62.23	4.9021
62.25	4.9026
62.27	4.9032
62.29	4.9038
62.30	4.9045
62.32	4.9051
62.33	4.9054
62.35	4.9058
62.37	4.9063
62.39	4.9067
62.40	4.9074
62.42	4.9080
62.44	4.9087
62.45	4.9093
62.47	4.9100
62.48	4.9106
62.50	4.9113
62.52	4.9120
62.54	4.9126
62.55	4.9132
62.57	4.9139
62.58	4.9146
62.59	4.9152
62.61	4.9159
62.63	4.9164
62.65	4.9167
62.67	4.9172
62.68	4.9176
62.70	4.9182
62.72	4.9187
62.73	4.9192
62.75	4.9198
62.77	4.9203
62.78	4.9208
62.80	4.9215
62.82	4.9222
62.83	4.9229
62.85	4.9238
62.87	4.9245
62.89	4.9251
62.90	4.9260
62.92	4.9266
62.93	4.9274
62.95	4.9282
62.97	4.9291
62.98	4.9299
63.00	4.9309
63.02	4.9316
63.02	4.9324
63.04	4.9333
63.06	4.9337
63.08	4.9345
63.10	4.9352
63.12	4.9362
63.13	4.9372
63.15	4.9381
63.17	4.9390
63.19	4.9399
63.20	4.9408
63.22	4.9417
63.24	4.9427
63.25	4.9436
63.27	4.9445
63.28	4.9454
63.30	4.9462
63.32	4.9470
63.34	4.9478
63.35	4.9487
63.37	4.9496
63.38	4.9503
63.40	4.9510
63.42	4.9518
63.44	4.9526
63.45	4.9534
63.47	4.9542
63.48	4.9552
63.50	4.9563
63.52	4.9571
63.54	4.9582
63.55	4.9591
63.57	4.9601
63.59	4.9610
63.60	4.9619
63.62	4.9628
63.64	4.9636
63.65	4.9645
63.67	4.9650
63.68	4.9658
63.70	4.9664
63.72	4.9669
63.74	4.9677
63.75	4.9684
63.77	4.9690
63.79	4.9699
63.80	4.9707
63.82	4.9715
63.84	4.9723
63.85	4.9731
63.87	4.9737
63.88	4.9743
63.90	4.9749
63.92	4.9756
63.94	4.9762
63.95	4.9769
63.97	4.9776
63.99	4.9781
64.00	4.9784
64.02	4.9790
64.04	4.9793
64.05	4.9797
64.07	4.9802
64.09	4.9807
64.10	4.9812
64.12	4.9818
64.13	4.9826
64.15	4.9833
64.17	4.9841
64.19	4.9848
64.20	4.9854
64.22	4.9859
64.24	4.9865
64.25	4.9873
64.27	4.9875
64.29	4.9881
64.30	4.9887
64.32	4.9890
64.34	4.9892
64.35	4.9897
64.38	4.9902
64.39	4.9907
64.40	4.9911
64.42	4.9915
64.44	4.9922
64.45	4.9929
64.47	4.9934
64.49	4.9942
64.50	4.9949
64.52	4.9954
64.54	4.9959
64.55	4.9964
64.57	4.9970
64.59	4.9977
64.60	4.9980
64.62	4.9985
64.63	4.9990
64.65	4.9996
64.67	4.9999
64.69	5.0005
64.70	5.0011
64.72	5.0014
64.74	5.0019
64.75	5.0024
64.77	5.0028
64.79	5.0036
64.81	5.0043
64.82	5.0050
64.84	5.0057
64.85	5.0062
64.87	5.0066
64.88	5.0073
64.90	5.0079
64.92	5.0083
64.94	5.0088
64.95	5.0094
64.97	5.0099
64.99	5.0105
65.00	5.0109
65.02	5.0115
65.04	5.0120
65.05	5.0126
65.08	5.0131
65.09	5.0135
65.10	5.0140
65.12	5.0147
65.14	5.0152
65.16	5.0160
65.17	5.0166
65.18	5.0174
65.20	5.0179
65.22	5.0185
65.24	5.0191
65.25	5.0198
65.27	5.0203
65.29	5.0207
65.31	5.0211
65.32	5.0215
65.34	5.0219
65.35	5.0223
65.37	5.0226
65.38	5.0230
65.40	5.0233
65.42	5.0238
65.44	5.0243
65.45	5.0249
65.47	5.0254
65.49	5.0260
65.50	5.0266
65.52	5.0272
65.53	5.0278
65.55	5.0284
65.57	5.0289
65.59	5.0293
65.60	5.0299
65.62	5.0300
65.64	5.0304
65.65	5.0308
65.67	5.0312
65.68	5.0316
65.70	5.0319
65.72	5.0323
65.74	5.0326
65.75	5.0330
65.77	5.0333
65.79	5.0338
65.80	5.0344
65.82	5.0348
65.84	5.0353
65.85	5.0361
65.87	5.0367
65.89	5.0374
65.91	5.0378
65.92	5.0385
65.94	5.0389
65.96	5.0394
65.97	5.0398
65.99	5.0404
66.00	5.0408
66.02	5.0414
66.04	5.0419
66.05	5.0422
66.07	5.0426
66.09	5.0432
66.10	5.0436
66.12	5.0442
66.14	5.0449
66.15	5.0457
66.17	5.0462
66.19	5.0469
66.20	5.0476
66.22	5.0481
66.24	5.0488
66.25	5.0495
66.27	5.0500
66.29	5.0505
66.30	5.0512
66.32	5.0516
66.33	5.0521
66.35	5.0526
66.37	5.0533
66.39	5.0539
66.40	5.0545
66.42	5.0550
66.43	5.0555
66.45	5.0562
66.47	5.0569
66.49	5.0574
66.51	5.0581
66.52	5.0587
66.53	5.0594
66.55	5.0599
66.57	5.0605
66.58	5.0611
66.60	5.0617
66.62	5.0622
66.63	5.0628
66.65	5.0633
66.67	5.0638
66.69	5.0643
66.70	5.0649
66.72	5.0655
66.74	5.0661
66.75	5.0668
66.77	5.0674
66.79	5.0681
66.80	5.0689
66.82	5.0695
66.84	5.0705
66.85	5.0712
66.87	5.0717
66.89	5.0725
66.90	5.0732
66.92	5.0737
66.93	5.0743
66.95	5.0750
66.97	5.0753
66.99	5.0758
67.00	5.0765
67.02	5.0770
67.03	5.0775
67.05	5.0781
67.07	5.0785
67.09	5.0792
67.10	5.0799
67.12	5.0806
67.14	5.0815
67.15	5.0821
67.17	5.0830
67.19	5.0837
67.20	5.0844
67.22	5.0851
67.23	5.0856
67.25	5.0864
67.27	5.0869
67.29	5.0873
67.30	5.0880
67.33	5.0885
67.34	5.0890
67.35	5.0897
67.37	5.0902
67.38	5.0908
67.40	5.0914
67.42	5.0919
67.43	5.0925
67.45	5.0932
67.47	5.0941
67.48	5.0949
67.50	5.0957
67.52	5.0964
67.54	5.0972
67.55	5.0979
67.57	5.0986
67.58	5.0992
67.60	5.0998
67.63	5.1004
67.64	5.1010
67.65	5.1016
67.67	5.1022
67.69	5.1027
67.70	5.1035
67.72	5.1041
67.73	5.1048
67.75	5.1054
67.77	5.1061
67.78	5.1069
67.81	5.1077
67.83	5.1083
67.84	5.1090
67.85	5.1096
67.88	5.1103
67.89	5.1110
67.90	5.1119
67.92	5.1125
67.94	5.1133
67.95	5.1139
67.97	5.1146
67.99	5.1151
68.00	5.1157
68.02	5.1163
68.04	5.1168
68.05	5.1176
68.07	5.1180
68.08	5.1187
68.10	5.1193
68.12	5.1199
68.14	5.1206
68.15	5.1211
68.17	5.1220
68.19	5.1225
68.20	5.1231
68.22	5.1239
68.24	5.1247
68.25	5.1253
68.27	5.1260
68.28	5.1266
68.30	5.1271
68.32	5.1276
68.34	5.1280
68.35	5.1283
68.37	5.1287
68.38	5.1293
68.40	5.1297
68.42	5.1301
68.44	5.1311
68.45	5.1317
68.47	5.1324
68.49	5.1332
68.50	5.1338
68.52	5.1345
68.54	5.1352
68.55	5.1358
68.57	5.1364
68.59	5.1372
68.60	5.1377
68.62	5.1384
68.64	5.1389
68.66	5.1394
68.67	5.1400
68.69	5.1407
68.70	5.1414
68.73	5.1418
68.74	5.1424
68.75	5.1430
68.77	5.1436
68.79	5.1443
68.80	5.1448
68.82	5.1455
68.84	5.1462
68.85	5.1469
68.87	5.1475
68.89	5.1482
68.90	5.1490
68.92	5.1496
68.94	5.1503
68.95	5.1510
68.97	5.1515
68.99	5.1520
69.00	5.1526
69.02	5.1530
69.03	5.1536
69.05	5.1540
69.07	5.1546
69.09	5.1554
69.10	5.1558
69.12	5.1567
69.14	5.1572
69.16	5.1580
69.17	5.1586
69.18	5.1593
69.20	5.1598
69.22	5.1604
69.24	5.1609
69.25	5.1615
69.27	5.1622
69.29	5.1628
69.30	5.1635
69.32	5.1641
69.34	5.1646
69.36	5.1650
69.37	5.1656
69.38	5.1663
69.40	5.1669
69.42	5.1676
69.43	5.1683
69.45	5.1692
69.47	5.1698
69.49	5.1707
69.50	5.1712
69.52	5.1721
69.53	5.1726
69.55	5.1730
69.57	5.1739
69.59	5.1744
69.60	5.1750
69.62	5.1758
69.64	5.1764
69.65	5.1770
69.67	5.1777
69.68	5.1782
69.70	5.1790
69.72	5.1796
69.73	5.1801
69.75	5.1810
69.77	5.1820
69.79	5.1829
69.80	5.1838
69.81	5.1849
69.83	5.1858
69.85	5.1865
69.87	5.1875
69.89	5.1886
69.90	5.1896
69.92	5.1905
69.93	5.1914
69.95	5.1924
69.97	5.1934
69.98	5.1946
70.00	5.1970
70.02	5.2025
70.03	5.2117
70.05	5.2244
70.07	5.2399
70.08	5.2578
70.09	5.2770
70.12	5.2968
70.14	5.3168
70.15	5.3360
70.17	5.3539
70.18	5.3706
70.20	5.3860
70.22	5.3997
70.23	5.4119
70.25	5.4224
70.27	5.4311
70.28	5.4383
70.30	5.4444
70.32	5.4491
70.34	5.4525
70.35	5.4549
70.37	5.4561
70.38	5.4564
70.40	5.4558
70.42	5.4550
70.43	5.4536
70.45	5.4516
70.47	5.4490
70.48	5.4460
70.50	5.4425
70.52	5.4388
70.54	5.4350
70.55	5.4308
70.57	5.4267
70.58	5.4224
70.60	5.4177
70.62	5.4132
70.63	5.4088
70.65	5.4042
70.67	5.3998
70.68	5.3953
70.70	5.3906
70.72	5.3863
70.74	5.3821
70.75	5.3778
70.77	5.3737
70.79	5.3701
70.80	5.3663
70.82	5.3625
70.83	5.3588
70.85	5.3553
70.87	5.3518
70.88	5.3484
70.90	5.3451
70.92	5.3419
70.93	5.3390
70.95	5.3362
70.97	5.3334
70.98	5.3308
71.00	5.3282
71.02	5.3254
71.04	5.3231
71.05	5.3208
71.07	5.3188
71.08	5.3166
71.10	5.3148
71.11	5.3132
71.13	5.3114
71.15	5.3098
71.17	5.3083
71.18	5.3068
71.20	5.3052
71.22	5.3039
71.24	5.3027
71.25	5.3014
71.27	5.3000
71.28	5.2990
71.30	5.2979
71.32	5.2969
71.33	5.2957
71.35	5.2949
71.37	5.2937
71.38	5.2927
71.40	5.2920
71.42	5.2913
71.43	5.2909
71.45	5.2904
71.46	5.2898
71.48	5.2895
71.50	5.2891
71.52	5.2886
71.54	5.2882
71.55	5.2877
71.57	5.2874
71.58	5.2870
71.59	5.2867
71.62	5.2865
71.63	5.2864
71.65	5.2860
71.67	5.2858
71.68	5.2856
71.70	5.2853
71.72	5.2848
71.73	5.2847
71.75	5.2846
71.76	5.2846
71.78	5.2847
71.80	5.2846
71.81	5.2847
71.83	5.2845
71.85	5.2846
71.87	5.2847
71.88	5.2845
71.90	5.2846
71.92	5.2848
71.93	5.2850
71.95	5.2849
71.97	5.2853
71.99	5.2853
72.00	5.2852
72.02	5.2854
72.04	5.2855
72.05	5.2857
72.06	5.2858
72.08	5.2863
72.10	5.2866
72.12	5.2870
72.13	5.2875
72.15	5.2878
72.16	5.2881
72.18	5.2884
72.20	5.2889
72.21	5.2892
72.23	5.2894
72.25	5.2898
72.27	5.2903
72.29	5.2907
72.30	5.2912
72.32	5.2915
72.33	5.2917
72.35	5.2920
72.37	5.2923
72.38	5.2928
72.40	5.2930
72.42	5.2937
72.43	5.2941
72.45	5.2947
72.47	5.2951
72.48	5.2957
72.50	5.2963
72.52	5.2968
72.53	5.2976
72.55	5.2979
72.56	5.2984
72.58	5.2988
72.60	5.2994
72.61	5.2998
72.63	5.3002
72.64	5.3007
72.66	5.3010
72.68	5.3016
72.70	5.3018
72.72	5.3024
72.73	5.3028
72.75	5.3036
72.77	5.3042
72.78	5.3047
72.80	5.3053
72.82	5.3060
72.83	5.3066
72.85	5.3071
72.87	5.3075
72.88	5.3080
72.90	5.3086
72.92	5.3094
72.93	5.3099
72.95	5.3104
72.97	5.3112
72.99	5.3116
73.00	5.3121
73.02	5.3128
73.04	5.3132
73.05	5.3135
73.07	5.3141
73.08	5.3147
73.10	5.3153
73.12	5.3162
73.13	5.3169
73.15	5.3173
73.17	5.3179
73.18	5.3188
73.20	5.3194
73.22	5.3200
73.23	5.3202
73.25	5.3210
73.27	5.3215
73.28	5.3221
73.30	5.3226
73.31	5.3230
73.33	5.3235
73.35	5.3239
73.37	5.3248
73.38	5.3252
73.40	5.3261
73.42	5.3267
73.44	5.3272
73.45	5.3280
73.47	5.3287
73.48	5.3290
73.50	5.3298
73.52	5.3306
73.53	5.3312
73.55	5.3317
73.57	5.3326
73.58	5.3331
73.60	5.3337
73.62	5.3344
73.63	5.3349
73.65	5.3355
73.66	5.3359
73.69	5.3365
73.70	5.3370
73.72	5.3378
73.74	5.3384
73.75	5.3393
73.77	5.3401
73.79	5.3409
73.80	5.3416
73.82	5.3425
73.83	5.3431
73.85	5.3439
73.87	5.3444
73.88	5.3450
73.90	5.3455
73.92	5.3463
73.93	5.3467
73.95	5.3474
73.97	5.3479
73.98	5.3485
74.00	5.3492
74.02	5.3497
74.03	5.3503
74.05	5.3511
74.07	5.3518
74.09	5.3526
74.10	5.3534
74.12	5.3542
74.13	5.3548
74.15	5.3556
74.17	5.3564
74.19	5.3571
74.20	5.3577
74.22	5.3582
74.23	5.3587
74.25	5.3593
74.28	5.3600
74.29	5.3604
74.30	5.3610
74.32	5.3614
74.34	5.3620
74.35	5.3625
74.37	5.3632
74.39	5.3639
74.40	5.3646
74.42	5.3653
74.44	5.3660
74.45	5.3669
74.47	5.3677
74.48	5.3684
74.50	5.3690
74.52	5.3696
74.54	5.3702
74.55	5.3707
74.57	5.3713
74.59	5.3719
74.61	5.3726
74.62	5.3731
74.64	5.3737
74.65	5.3741
74.67	5.3748
74.68	5.3753
74.70	5.3758
74.72	5.3765
74.73	5.3772
74.75	5.3781
74.77	5.3787
74.79	5.3793
74.80	5.3799
74.82	5.3805
74.84	5.3811
74.85	5.3818
74.87	5.3824
74.89	5.3830
74.90	5.3837
74.92	5.3845
74.93	5.3850
74.95	5.3857
74.97	5.3864
74.99	5.3873
75.00	5.3877
75.02	5.3883
75.04	5.3887
75.05	5.3896
75.07	5.3904
75.09	5.3910
75.10	5.3918
75.12	5.3925
75.14	5.3931
75.15	5.3939
75.17	5.3944
75.19	5.3951
75.20	5.3956
75.22	5.3962
75.24	5.3967
75.25	5.3973
75.27	5.3977
75.28	5.3981
75.30	5.3985
75.32	5.3993
75.34	5.3998
75.35	5.4002
75.37	5.4010
75.39	5.4017
75.40	5.4026
75.42	5.4034
75.44	5.4041
75.45	5.4047
75.47	5.4054
75.49	5.4059
75.50	5.4067
75.52	5.4072
75.54	5.4079
75.56	5.4087
75.58	5.4093
75.58	5.4099
75.60	5.4105
75.62	5.4112
75.64	5.4117
75.65	5.4122
75.67	5.4129
75.69	5.4134
75.70	5.4140
75.71	5.4146
75.73	5.4153
75.75	5.4161
75.77	5.4172
75.79	5.4180
75.80	5.4190
75.82	5.4194
75.84	5.4200
75.85	5.4206
75.87	5.4211
75.89	5.4218
75.90	5.4224
75.92	5.4232
75.94	5.4237
75.95	5.4244
75.98	5.4250
75.99	5.4256
76.00	5.4264
76.02	5.4270
76.03	5.4279
76.05	5.4288
76.07	5.4296
76.09	5.4305
76.10	5.4313
76.12	5.4320
76.14	5.4328
76.15	5.4333
76.17	5.4342
76.19	5.4348
76.20	5.4355
76.22	5.4362
76.23	5.4369
76.25	5.4377
76.27	5.4384
76.29	5.4389
76.31	5.4396
76.33	5.4402
76.34	5.4408
76.35	5.4415
76.37	5.4421
76.39	5.4429
76.40	5.4437
76.42	5.4445
76.43	5.4451
76.45	5.4458
76.48	5.4466
76.48	5.4471
76.50	5.4477
76.52	5.4484
76.54	5.4490
76.55	5.4494
76.57	5.4500
76.59	5.4505
76.61	5.4511
76.62	5.4518
76.64	5.4522
76.65	5.4528
76.67	5.4534
76.68	5.4540
76.70	5.4547
76.72	5.4556
76.74	5.4565
76.75	5.4571
76.78	5.4579
76.80	5.4587
76.80	5.4595
76.82	5.4600
76.84	5.4605
76.85	5.4611
76.87	5.4618
76.89	5.4625
76.90	5.4632
76.92	5.4638
76.94	5.4646
76.95	5.4653
76.98	5.4660
76.99	5.4666
77.00	5.4673
77.02	5.4680
77.04	5.4686
77.05	5.4691
77.08	5.4698
77.09	5.4701
77.10	5.4709
77.12	5.4716
77.13	5.4725
77.15	5.4733
77.17	5.4737
77.19	5.4743
77.20	5.4750
77.22	5.4756
77.24	5.4760
77.25	5.4768
77.27	5.4774
77.28	5.4780
77.30	5.4788
77.32	5.4796
77.33	5.4803
77.35	5.4810
77.37	5.4818
77.39	5.4825
77.40	5.4833
77.42	5.4841
77.44	5.4849
77.45	5.4859
77.47	5.4864
77.48	5.4870
77.50	5.4876
77.52	5.4884
77.54	5.4890
77.56	5.4898
77.57	5.4907
77.59	5.4911
77.61	5.4917
77.63	5.4926
77.64	5.4930
77.65	5.4937
77.67	5.4944
77.69	5.4953
77.70	5.4960
77.72	5.4967
77.74	5.4974
77.75	5.4983
77.77	5.4992
77.79	5.4999
77.80	5.5007
77.82	5.5016
77.84	5.5023
77.85	5.5029
77.87	5.5036
77.89	5.5043
77.90	5.5049
77.92	5.5056
77.94	5.5062
77.95	5.5069
77.97	5.5077
77.99	5.5083
78.00	5.5091
78.02	5.5097
78.04	5.5107
78.05	5.5114
78.07	5.5122
78.09	5.5130
78.10	5.5135
78.12	5.5144
78.13	5.5149
78.15	5.5154
78.17	5.5161
78.18	5.5163
78.20	5.5171
78.23	5.5177
78.24	5.5183
78.25	5.5190
78.27	5.5197
78.29	5.5202
78.30	5.5207
78.32	5.5210
78.34	5.5218
78.35	5.5225
78.37	5.5232
78.39	5.5238
78.40	5.5246
78.42	5.5252
78.44	5.5258
78.45	5.5265
78.47	5.5270
78.49	5.5275
78.50	5.5281
78.53	5.5285
78.54	5.5291
78.55	5.5296
78.57	5.5301
78.58	5.5308
78.60	5.5313
78.62	5.5317
78.64	5.5321
78.66	5.5330
78.67	5.5336
78.69	5.5345
78.70	5.5351
78.72	5.5360
78.74	5.5369
78.75	5.5375
78.78	5.5382
78.79	5.5388
78.81	5.5392
78.83	5.5396
78.84	5.5402
78.85	5.5410
78.87	5.5416
78.88	5.5419
78.90	5.5426
78.92	5.5431
78.94	5.5437
78.95	5.5445
78.97	5.5452
78.99	5.5459
79.00	5.5467
79.02	5.5474
79.03	5.5480
79.05	5.5487
79.07	5.5494
79.09	5.5501
79.11	5.5507
79.13	5.5513
79.14	5.5520
79.15	5.5527
79.17	5.5533
79.18	5.5540
79.20	5.5547
79.22	5.5552
79.24	5.5556
79.25	5.5565
79.27	5.5572
79.28	5.5576
79.30	5.5584
79.33	5.5590
79.34	5.5598
79.35	5.5604
79.38	5.5611
79.39	5.5618
79.40	5.5624
79.42	5.5629
79.43	5.5637
79.45	5.5644
79.47	5.5652
79.49	5.5658
79.50	5.5664
79.52	5.5670
79.53	5.5676
79.55	5.5682
79.57	5.5690
79.58	5.5695
79.60	5.5702
79.62	5.5708
79.63	5.5714
79.65	5.5722
79.67	5.5730
79.69	5.5736
79.70	5.5741
79.72	5.5747
79.74	5.5756
79.75	5.5761
79.77	5.5765
79.79	5.5773
79.81	5.5779
79.83	5.5784
79.84	5.5791
79.85	5.5796
79.87	5.5801
79.88	5.5806
79.90	5.5813
79.92	5.5818
79.94	5.5824
79.95	5.5832
79.97	5.5840
79.99	5.5846
80.00	5.5855
80.02	5.5862
80.03	5.5870
80.05	5.5878
80.07	5.5883
80.08	5.5890
80.10	5.5898
80.12	5.5906
80.13	5.5912
80.15	5.5919
80.17	5.5924
80.19	5.5931
80.20	5.5937
80.22	5.5943
80.24	5.5950
80.25	5.5957
80.27	5.5965
80.29	5.5975
80.30	5.5984
80.32	5.5990
80.34	5.5999
80.35	5.6007
80.37	5.6014
80.38	5.6023
80.40	5.6029
80.42	5.6035
80.44	5.6040
80.45	5.6047
80.47	5.6055
80.48	5.6062
80.50	5.6071
80.52	5.6076
80.54	5.6083
80.55	5.6089
80.57	5.6096
80.58	5.6102
80.60	5.6110
80.62	5.6117
80.63	5.6124
80.65	5.6131
80.67	5.6140
80.68	5.6147
80.70	5.6155
80.72	5.6164
80.74	5.6172
80.75	5.6180
80.77	5.6187
80.78	5.6193
80.80	5.6201
80.82	5.6208
80.84	5.6214
80.85	5.6220
80.87	5.6229
80.89	5.6237
80.90	5.6243
80.92	5.6249
80.93	5.6256
80.95	5.6261
80.97	5.6268
80.99	5.6274
81.00	5.6280
81.02	5.6285
81.04	5.6294
81.05	5.6302
81.07	5.6311
81.09	5.6319
81.10	5.6325
81.12	5.6332
81.14	5.6339
81.16	5.6344
81.17	5.6349
81.19	5.6355
81.20	5.6361
81.22	5.6367
81.23	5.6375
81.25	5.6380
81.27	5.6387
81.28	5.6396
81.30	5.6406
81.31	5.6413
81.33	5.6421
81.34	5.6428
81.36	5.6434
81.38	5.6441
81.40	5.6446
81.42	5.6453
81.43	5.6461
81.45	5.6468
81.47	5.6474
81.48	5.6480
81.50	5.6486
81.51	5.6491
81.53	5.6501
81.55	5.6508
81.57	5.6516
81.58	5.6524
81.59	5.6531
81.62	5.6539
81.63	5.6546
81.65	5.6552
81.67	5.6557
81.68	5.6563
81.70	5.6569
81.72	5.6576
81.73	5.6581
81.75	5.6588
81.77	5.6594
81.79	5.6601
81.80	5.6607
81.82	5.6613
81.83	5.6623
81.85	5.6628
81.87	5.6634
81.88	5.6640
81.90	5.6648
81.92	5.6650
81.93	5.6657
81.95	5.6663
81.97	5.6666
81.99	5.6671
82.00	5.6678
82.02	5.6683
82.03	5.6687
82.05	5.6694
82.06	5.6702
82.08	5.6707
82.09	5.6714
82.12	5.6721
82.13	5.6726
82.15	5.6732
82.17	5.6737
82.18	5.6741
82.20	5.6748
82.22	5.6752
82.23	5.6758
82.25	5.6761
82.26	5.6766
82.28	5.6770
82.30	5.6776
82.31	5.6783
82.33	5.6790
82.34	5.6794
82.36	5.6801
82.38	5.6809
82.40	5.6817
82.42	5.6823
82.43	5.6830
82.45	5.6835
82.47	5.6839
82.48	5.6845
82.50	5.6850
82.51	5.6854
82.53	5.6858
82.55	5.6866
82.57	5.6870
82.59	5.6877
82.60	5.6885
82.62	5.6892
82.63	5.6898
82.65	5.6905
82.66	5.6910
82.68	5.6915
82.70	5.6921
82.71	5.6927
82.73	5.6932
82.75	5.6941
82.76	5.6947
82.78	5.6950
82.80	5.6958
82.82	5.6964
82.83	5.6972
82.84	5.6979
82.86	5.6985
82.88	5.6994
82.89	5.7000
82.92	5.7009
82.93	5.7016
82.95	5.7024
82.96	5.7031
82.98	5.7036
83.00	5.7043
83.02	5.7050
83.03	5.7057
83.05	5.7063
83.06	5.7069
83.08	5.7076
83.09	5.7086
83.11	5.7093
83.13	5.7100
83.14	5.7108
83.16	5.7114
83.18	5.7120
83.20	5.7127
83.21	5.7134
83.23	5.7141
83.24	5.7147
83.26	5.7154
83.28	5.7161
83.30	5.7167
83.31	5.7175
83.33	5.7183
83.34	5.7191
83.36	5.7199
83.38	5.7209
83.39	5.7214
83.41	5.7223
83.43	5.7229
83.45	5.7237
83.46	5.7242
83.47	5.7251
83.49	5.7258
83.51	5.7262
83.53	5.7270
83.55	5.7276
83.56	5.7283
83.58	5.7291
83.59	5.7299
83.61	5.7306
83.63	5.7314
83.64	5.7321
83.66	5.7326
83.68	5.7333
83.70	5.7341
83.71	5.7347
83.73	5.7354
83.75	5.7363
83.76	5.7368
83.78	5.7375
83.79	5.7381
83.81	5.7388
83.83	5.7394
83.84	5.7402
83.86	5.7409
83.88	5.7417
83.89	5.7425
83.91	5.7431
83.93	5.7436
83.95	5.7444
83.96	5.7451
83.98	5.7458
83.99	5.7463
84.01	5.7467
84.03	5.7475
84.04	5.7482
84.06	5.7488
84.08	5.7493
84.09	5.7501
84.11	5.7509
84.13	5.7518
84.14	5.7526
84.16	5.7535
84.17	5.7541
84.19	5.7546
84.21	5.7553
84.23	5.7562
84.24	5.7567
84.25	5.7574
84.28	5.7580
84.30	5.7585
84.31	5.7590
84.33	5.7597
84.34	5.7605
84.36	5.7612
84.38	5.7618
84.39	5.7624
84.41	5.7633
84.43	5.7640
84.44	5.7647
84.46	5.7656
84.48	5.7663
84.50	5.7670
84.51	5.7675
84.53	5.7682
84.54	5.7687
84.56	5.7697
84.58	5.7702
84.59	5.7707
84.61	5.7714
84.63	5.7721
84.64	5.7729
84.65	5.7736
84.67	5.7745
84.70	5.7751
84.71	5.7758
84.73	5.7765
84.74	5.7772
84.76	5.7780
84.78	5.7788
84.79	5.7795
84.81	5.7802
84.83	5.7808
84.84	5.7817
84.85	5.7825
84.88	5.7834
84.89	5.7842
84.91	5.7849
84.92	5.7858
84.94	5.7865
84.96	5.7875
84.98	5.7882
84.99	5.7889
85.01	5.7895
85.03	5.7903
85.04	5.7911
85.06	5.7918
85.08	5.7924
85.09	5.7930
85.10	5.7938
85.12	5.7948
85.14	5.7956
85.16	5.7967
85.17	5.7973
85.19	5.7982
85.21	5.7991
85.23	5.8001
85.24	5.8009
85.26	5.8016
85.28	5.8023
85.29	5.8028
85.31	5.8035
85.33	5.8039
85.34	5.8046
85.36	5.8053
85.37	5.8063
85.39	5.8071
85.41	5.8081
85.42	5.8090
85.43	5.8097
85.45	5.8102
85.47	5.8110
85.49	5.8117
85.51	5.8126
85.53	5.8134
85.54	5.8141
85.55	5.8149
85.58	5.8157
85.59	5.8164
85.61	5.8168
85.63	5.8176
85.64	5.8184
85.66	5.8192
85.67	5.8199
85.69	5.8205
85.70	5.8213
85.72	5.8221
85.74	5.8229
85.75	5.8235
85.77	5.8243
85.78	5.8252
85.80	5.8258
85.82	5.8266
85.84	5.8272
85.86	5.8280
85.87	5.8288
85.88	5.8296
85.90	5.8303
85.92	5.8309
85.93	5.8316
85.95	5.8322
85.97	5.8328
85.99	5.8333
86.01	5.8341
86.03	5.8348
86.04	5.8356
86.05	5.8363
86.07	5.8373
86.08	5.8378
86.10	5.8384
86.12	5.8391
86.14	5.8399
86.15	5.8406
86.17	5.8413
86.19	5.8423
86.20	5.8429
86.22	5.8437
86.24	5.8442
86.25	5.8448
86.27	5.8455
86.28	5.8461
86.30	5.8468
86.32	5.8477
86.34	5.8482
86.35	5.8487
86.37	5.8494
86.39	5.8501
86.40	5.8508
86.42	5.8515
86.44	5.8522
86.45	5.8531
86.47	5.8539
86.49	5.8545
86.51	5.8551
86.52	5.8558
86.54	5.8565
86.55	5.8571
86.57	5.8578
86.59	5.8584
86.60	5.8591
86.62	5.8600
86.64	5.8604
86.65	5.8612
86.67	5.8620
86.69	5.8627
86.70	5.8635
86.72	5.8643
86.74	5.8650
86.75	5.8658
86.77	5.8666
86.79	5.8671
86.80	5.8679
86.82	5.8686
86.83	5.8692
86.85	5.8699
86.87	5.8707
86.88	5.8713
86.90	5.8721
86.92	5.8730
86.93	5.8739
86.95	5.8748
86.96	5.8756
86.98	5.8764
87.00	5.8772
87.02	5.8781
87.03	5.8787
87.05	5.8795
87.07	5.8801
87.08	5.8809
87.10	5.8817
87.12	5.8824
87.14	5.8830
87.15	5.8837
87.17	5.8845
87.19	5.8851
87.20	5.8861
87.22	5.8870
87.24	5.8879
87.25	5.8885
87.27	5.8895
87.28	5.8901
87.30	5.8907
87.32	5.8915
87.33	5.8919
87.35	5.8924
87.37	5.8932
87.38	5.8941
87.40	5.8948
87.42	5.8955
87.44	5.8963
87.45	5.8971
87.47	5.8978
87.49	5.8984
87.50	5.8991
87.52	5.9000
87.53	5.9006
87.55	5.9012
87.57	5.9020
87.58	5.9027
87.59	5.9034
87.61	5.9041
87.63	5.9048
87.65	5.9055
87.66	5.9063
87.68	5.9071
87.70	5.9080
87.72	5.9090
87.73	5.9097
87.75	5.9105
87.77	5.9113
87.78	5.9121
87.80	5.9128
87.81	5.9136
87.83	5.9143
87.84	5.9150
87.86	5.9157
87.88	5.9163
87.89	5.9170
87.91	5.9179
87.93	5.9186
87.95	5.9196
87.96	5.9205
87.98	5.9212
88.00	5.9218
88.01	5.9226
88.03	5.9231
88.05	5.9238
88.06	5.9245
88.08	5.9252
88.09	5.9257
88.11	5.9263
88.13	5.9270
88.15	5.9277
88.16	5.9283
88.17	5.9291
88.20	5.9298
88.21	5.9306
88.23	5.9315
88.25	5.9326
88.26	5.9333
88.28	5.9340
88.29	5.9347
88.31	5.9353
88.33	5.9360
88.34	5.9366
88.36	5.9372
88.38	5.9380
88.39	5.9386
88.41	5.9393
88.42	5.9399
88.44	5.9409
88.46	5.9415
88.48	5.9422
88.50	5.9432
88.51	5.9440
88.53	5.9449
88.54	5.9458
88.56	5.9464
88.58	5.9470
88.59	5.9478
88.61	5.9485
88.63	5.9492
88.64	5.9498
88.66	5.9506
88.68	5.9513
88.69	5.9522
88.71	5.9528
88.73	5.9536
88.74	5.9543
88.76	5.9549
88.78	5.9555
88.79	5.9564
88.81	5.9569
88.83	5.9576
88.84	5.9584
88.86	5.9589
88.88	5.9595
88.89	5.9603
88.91	5.9610
88.93	5.9618
88.94	5.9624
88.96	5.9630
88.98	5.9639
88.99	5.9646
89.01	5.9655
89.03	5.9661
89.05	5.9669
89.06	5.9676
89.08	5.9684
89.09	5.9692
89.11	5.9699
89.13	5.9705
89.14	5.9712
89.16	5.9718
89.18	5.9726
89.19	5.9733
89.20	5.9741
89.23	5.9751
89.24	5.9756
89.25	5.9765
89.27	5.9771
89.29	5.9778
89.31	5.9784
89.33	5.9791
89.34	5.9797
89.35	5.9805
89.38	5.9810
89.39	5.9819
89.41	5.9824
89.42	5.9833
89.44	5.9842
89.46	5.9849
89.48	5.9858
89.49	5.9866
89.51	5.9871
89.53	5.9879
89.54	5.9887
89.56	5.9893
89.58	5.9901
89.59	5.9907
89.61	5.9915
89.63	5.9921
89.64	5.9928
89.65	5.9933
89.67	5.9941
89.69	5.9950
89.71	5.9958
89.73	5.9964
89.74	5.9971
89.76	5.9980
89.78	5.9988
89.79	5.9995
89.80	6.0001
89.82	6.0009
89.84	6.0017
89.85	6.0024
89.87	6.0030
89.89	6.0038
89.90	6.0046
89.92	6.0053
89.94	6.0060
89.95	6.0069
89.98	6.0078
89.99	6.0084
90.00	6.0092
90.02	6.0100
90.04	6.0109
90.06	6.0116
90.07	6.0124
90.08	6.0133
90.10	6.0139
90.12	6.0145
90.14	6.0151
90.16	6.0158
90.17	6.0165
90.19	6.0174
90.20	6.0182
90.22	6.0191
90.24	6.0201
90.25	6.0207
90.28	6.0217
90.29	6.0224
90.30	6.0230
90.32	6.0238
90.34	6.0245
90.35	6.0251
90.37	6.0260
90.39	6.0268
90.40	6.0274
90.41	6.0280
90.43	6.0286
90.45	6.0296
90.47	6.0304
90.49	6.0313
90.50	6.0320
90.52	6.0327
90.53	6.0336
90.55	6.0343
90.57	6.0351
90.58	6.0358
90.60	6.0366
90.63	6.0375
90.64	6.0383
90.65	6.0389
90.67	6.0398
90.68	6.0406
90.70	6.0417
90.72	6.0427
90.74	6.0436
90.76	6.0444
90.77	6.0451
90.79	6.0458
90.80	6.0466
90.82	6.0474
90.84	6.0482
90.85	6.0488
90.87	6.0496
90.88	6.0504
90.90	6.0512
90.92	6.0519
90.93	6.0528
90.95	6.0534
90.97	6.0544
90.98	6.0550
91.00	6.0558
91.02	6.0566
91.03	6.0576
91.05	6.0582
91.07	6.0590
91.08	6.0597
91.10	6.0605
91.12	6.0613
91.14	6.0619
91.16	6.0625
91.17	6.0634
91.18	6.0640
91.20	6.0647
91.22	6.0655
91.24	6.0662
91.25	6.0670
91.27	6.0679
91.28	6.0688
91.30	6.0695
91.33	6.0701
91.34	6.0709
91.36	6.0715
91.37	6.0722
91.38	6.0729
91.40	6.0735
91.42	6.0742
91.44	6.0748
91.45	6.0754
91.47	6.0762
91.49	6.0771
91.50	6.0779
91.52	6.0789
91.53	6.0796
91.55	6.0805
91.57	6.0812
91.58	6.0821
91.60	6.0827
91.62	6.0835
91.63	6.0845
91.65	6.0852
91.67	6.0859
91.69	6.0866
91.70	6.0873
91.72	6.0879
91.73	6.0886
91.75	6.0894
91.77	6.0901
91.78	6.0909
91.80	6.0914
91.82	6.0922
91.83	6.0929
91.85	6.0937
91.87	6.0944
91.88	6.0952
91.89	6.0959
91.92	6.0966
91.93	6.0974
91.95	6.0982
91.97	6.0987
91.98	6.0996
92.00	6.1005
92.02	6.1014
92.04	6.1024
92.05	6.1034
92.07	6.1043
92.08	6.1052
92.10	6.1060
92.12	6.1068
92.13	6.1075
92.15	6.1082
92.17	6.1090
92.19	6.1095
92.20	6.1102
92.22	6.1111
92.23	6.1120
92.25	6.1128
92.26	6.1136
92.28	6.1144
92.30	6.1150
92.32	6.1159
92.33	6.1166
92.35	6.1172
92.37	6.1181
92.38	6.1187
92.40	6.1193
92.42	6.1201
92.43	6.1205
92.45	6.1212
92.46	6.1219
92.48	6.1225
92.50	6.1233
92.52	6.1242
92.53	6.1252
92.55	6.1259
92.56	6.1267
92.58	6.1274
92.60	6.1280
92.62	6.1287
92.63	6.1293
92.64	6.1301
92.66	6.1308
92.68	6.1314
92.70	6.1320
92.72	6.1326
92.73	6.1335
92.75	6.1343
92.77	6.1350
92.78	6.1358
92.80	6.1364
92.81	6.1374
92.83	6.1382
92.84	6.1390
92.87	6.1397
92.88	6.1404
92.89	6.1409
92.91	6.1416
92.93	6.1421
92.95	6.1427
92.97	6.1435
92.98	6.1443
93.00	6.1451
93.01	6.1458
93.03	6.1467
93.05	6.1476
93.06	6.1484
93.08	6.1491
93.10	6.1498
93.11	6.1505
93.13	6.1510
93.15	6.1516
93.16	6.1522
93.18	6.1530
93.20	6.1536
93.22	6.1543
93.23	6.1550
93.25	6.1558
93.26	6.1568
93.28	6.1576
93.29	6.1584
93.31	6.1593
93.33	6.1601
93.34	6.1609
93.36	6.1621
93.38	6.1628
93.39	6.1633
93.41	6.1641
93.43	6.1648
93.45	6.1654
93.47	6.1661
93.48	6.1669
93.50	6.1677
93.52	6.1685
93.53	6.1690
93.55	6.1700
93.56	6.1707
93.58	6.1714
93.59	6.1722
93.62	6.1730
93.63	6.1738
93.64	6.1746
93.67	6.1753
93.68	6.1760
93.70	6.1766
93.71	6.1773
93.73	6.1779
93.75	6.1787
93.77	6.1795
93.78	6.1805
93.80	6.1813
93.81	6.1820
93.83	6.1829
93.84	6.1837
93.86	6.1846
93.88	6.1852
93.89	6.1860
93.91	6.1868
93.93	6.1874
93.95	6.1881
93.97	6.1888
93.98	6.1894
94.00	6.1900
94.02	6.1909
94.03	6.1918
94.05	6.1928
94.06	6.1938
94.08	6.1944
94.09	6.1953
94.12	6.1962
94.14	6.1969
94.14	6.1976
94.16	6.1983
94.18	6.1991
94.20	6.2000
94.21	6.2007
94.23	6.2014
94.25	6.2022
94.26	6.2031
94.28	6.2038
94.30	6.2047
94.31	6.2055
94.33	6.2063
94.34	6.2071
94.36	6.2077
94.38	6.2087
94.39	6.2096
94.41	6.2103
94.42	6.2111
94.45	6.2118
94.46	6.2126
94.48	6.2133
94.50	6.2139
94.51	6.2148
94.53	6.2158
94.55	6.2166
94.56	6.2175
94.58	6.2185
94.59	6.2193
94.61	6.2200
94.63	6.2208
94.64	6.2215
94.66	6.2222
94.68	6.2228
94.70	6.2236
94.71	6.2245
94.73	6.2251
94.75	6.2260
94.77	6.2270
94.78	6.2278
94.80	6.2288
94.81	6.2296
94.83	6.2306
94.84	6.2313
94.86	6.2321
94.88	6.2329
94.89	6.2337
94.91	6.2346
94.93	6.2355
94.95	6.2362
94.96	6.2369
94.98	6.2376
95.00	6.2384
95.01	6.2394
95.03	6.2402
95.05	6.2410
95.06	6.2418
95.08	6.2425
95.09	6.2433
95.11	6.2441
95.13	6.2447
95.14	6.2454
95.16	6.2462
95.18	6.2469
95.20	6.2477
95.21	6.2486
95.23	6.2493
95.25	6.2501
95.27	6.2510
95.28	6.2518
95.30	6.2527
95.31	6.2535
95.33	6.2545
95.34	6.2552
95.36	6.2559
95.38	6.2567
95.39	6.2577
95.40	6.2586
95.42	6.2593
95.45	6.2601
95.46	6.2607
95.48	6.2614
95.49	6.2620
95.51	6.2628
95.53	6.2637
95.54	6.2647
95.56	6.2655
95.58	6.2665
95.59	6.2673
95.61	6.2681
95.63	6.2690
95.64	6.2699
95.66	6.2707
95.68	6.2715
95.70	6.2723
95.71	6.2729
95.73	6.2735
95.74	6.2741
95.76	6.2748
95.78	6.2755
95.79	6.2764
95.81	6.2772
95.83	6.2780
95.84	6.2790
95.86	6.2799
95.88	6.2807
95.89	6.2815
95.91	6.2823
95.93	6.2832
95.95	6.2839
95.96	6.2846
95.98	6.2852
95.99	6.2860
96.01	6.2866
96.03	6.2873
96.04	6.2883
96.06	6.2889
96.08	6.2898
96.09	6.2907
96.11	6.2914
96.13	6.2922
96.14	6.2931
96.16	6.2937
96.17	6.2943
96.19	6.2952
96.21	6.2959
96.23	6.2966
96.24	6.2973
96.26	6.2979
96.28	6.2984
96.29	6.2992
96.31	6.3000
96.33	6.3007
96.34	6.3014
96.36	6.3022
96.38	6.3028
96.39	6.3036
96.41	6.3043
96.42	6.3048
96.45	6.3054
96.46	6.3061
96.48	6.3066
96.50	6.3073
96.51	6.3080
96.53	6.3085
96.54	6.3094
96.56	6.3101
96.58	6.3110
96.59	6.3117
96.61	6.3127
96.63	6.3137
96.64	6.3144
96.66	6.3151
96.67	6.3158
96.69	6.3167
96.71	6.3176
96.73	6.3183
96.74	6.3191
96.76	6.3198
96.78	6.3206
96.80	6.3214
96.81	6.3223
96.83	6.3231
96.84	6.3239
96.85	6.3249
96.88	6.3257
96.89	6.3267
96.91	6.3276
96.92	6.3284
96.94	6.3294
96.96	6.3303
96.98	6.3313
96.99	6.3320
97.01	6.3331
97.03	6.3341
97.04	6.3348
97.06	6.3358
97.08	6.3366
97.09	6.3375
97.11	6.3386
97.13	6.3393
97.14	6.3404
97.15	6.3413
97.17	6.3420
97.19	6.3430
97.21	6.3438
97.23	6.3446
97.24	6.3454
97.26	6.3461
97.28	6.3469
97.29	6.3478
97.31	6.3488
97.33	6.3498
97.34	6.3507
97.36	6.3516
97.38	6.3526
97.39	6.3535
97.41	6.3542
97.42	6.3550
97.44	6.3558
97.46	6.3567
97.48	6.3572
97.49	6.3580
97.51	6.3587
97.53	6.3594
97.54	6.3602
97.55	6.3614
97.58	6.3624
97.59	6.3633
97.61	6.3643
97.63	6.3652
97.64	6.3659
97.66	6.3670
97.67	6.3680
97.69	6.3690
97.71	6.3698
97.72	6.3707
97.74	6.3715
97.76	6.3723
97.78	6.3730
97.79	6.3740
97.81	6.3749
97.83	6.3758
97.84	6.3770
97.86	6.3780
97.88	6.3790
97.89	6.3798
97.91	6.3807
97.92	6.3817
97.94	6.3826
97.96	6.3834
97.98	6.3842
97.99	6.3849
98.00	6.3858
98.03	6.3865
98.04	6.3874
98.05	6.3882
98.08	6.3890
98.09	6.3900
98.10	6.3911
98.12	6.3921
98.14	6.3927
98.16	6.3935
98.17	6.3943
98.19	6.3949
98.20	6.3957
98.21	6.3965
98.23	6.3971
98.25	6.3979
98.27	6.3986
98.29	6.3994
98.31	6.4002
98.32	6.4010
98.34	6.4018
98.36	6.4026
98.38	6.4035
98.39	6.4045
98.41	6.4052
98.42	6.4060
98.44	6.4067
98.45	6.4076
98.47	6.4083
98.49	6.4090
98.51	6.4095
98.53	6.4103
98.54	6.4110
98.56	6.4119
98.58	6.4127
98.59	6.4135
98.61	6.4142
98.63	6.4150
98.64	6.4158
98.66	6.4164
98.67	6.4173
98.69	6.4179
98.70	6.4186
98.72	6.4194
98.74	6.4200
98.76	6.4207
98.77	6.4214
98.79	6.4222
98.81	6.4230
98.83	6.4239
98.84	6.4248
98.85	6.4257
98.87	6.4266
98.89	6.4276
98.90	6.4284
98.92	6.4291
98.94	6.4299
98.95	6.4306
98.97	6.4315
98.99	6.4322
99.00	6.4328
99.02	6.4337
99.04	6.4345
99.05	6.4353
99.08	6.4362
99.09	6.4372
99.10	6.4379
99.12	6.4389
99.14	6.4397
99.15	6.4406
99.17	6.4415
99.19	6.4424
99.20	6.4431
99.22	6.4439
99.24	6.4446
99.25	6.4452
99.28	6.4460
99.29	6.4466
99.30	6.4472
99.32	6.4482
99.34	6.4492
99.35	6.4501
99.37	6.4511
99.39	6.4521
99.41	6.4528
99.42	6.4534
99.44	6.4543
99.45	6.4550
99.46	6.4558
99.49	6.4564
99.50	6.4572
99.52	6.4579
99.54	6.4586
99.55	6.4594
99.57	6.4601
99.59	6.4608
99.60	6.4616
99.62	6.4624
99.64	6.4633
99.65	6.4640
99.67	6.4648
99.69	6.4657
99.70	6.4664
99.71	6.4672
99.73	6.4681
99.75	6.4689
99.77	6.4695
99.79	6.4701
99.80	6.4711
99.83	6.4718
99.84	6.4727
99.85	6.4734
99.87	6.4744
99.89	6.4754
99.90	6.4762
99.92	6.4769
99.94	6.4779
99.95	6.4788
99.97	6.4796
99.99	6.4803
100.01	6.4812
100.02	6.4821
100.04	6.4829
100.05	6.4837
100.07	6.4847
100.09	6.4856
100.11	6.4869
100.12	6.4878
100.14	6.4889
100.15	6.4896
100.17	6.4905
100.19	6.4913
100.20	6.4922
100.22	6.4932
100.24	6.4940
100.25	6.4948
100.27	6.4957
100.29	6.4966
100.30	6.4974
100.32	6.4982
100.34	6.4992
100.35	6.5004
100.37	6.5014
100.39	6.5026
100.40	6.5034
100.42	6.5044
100.44	6.5053
100.46	6.5062
100.48	6.5070
100.49	6.5078
100.50	6.5088
100.52	6.5096
100.54	6.5104
100.55	6.5112
100.57	6.5121
100.58	6.5130
100.60	6.5138
100.62	6.5147
100.64	6.5158
100.65	6.5168
100.67	6.5177
100.68	6.5187
100.70	6.5194
100.72	6.5204
100.74	6.5214
100.75	6.5220
100.77	6.5228
100.79	6.5235
100.80	6.5243
100.82	6.5249
100.83	6.5260
100.85	6.5270
100.87	6.5279
100.88	6.5288
100.90	6.5296
100.92	6.5306
100.94	6.5317
100.95	6.5325
100.97	6.5331
100.99	6.5341
101.00	6.5348
101.02	6.5356
101.04	6.5366
101.05	6.5374
101.07	6.5382
101.08	6.5391
101.10	6.5401
101.12	6.5409
101.13	6.5417
101.15	6.5427
101.17	6.5435
101.19	6.5444
101.20	6.5453
101.22	6.5461
101.23	6.5468
101.25	6.5479
101.27	6.5488
101.28	6.5497
101.30	6.5505
101.32	6.5513
101.33	6.5524
101.35	6.5532
101.37	6.5541
101.38	6.5549
101.40	6.5558
101.42	6.5567
101.44	6.5576
101.45	6.5583
101.47	6.5591
101.49	6.5599
101.50	6.5607
101.52	6.5614
101.53	6.5625
101.55	6.5630
101.57	6.5638
101.59	6.5647
101.60	6.5656
101.62	6.5665
101.64	6.5674
101.65	6.5681
101.67	6.5690
101.69	6.5697
101.70	6.5705
101.72	6.5715
101.74	6.5724
101.75	6.5730
101.77	6.5738
101.78	6.5747
101.80	6.5756
101.82	6.5765
101.83	6.5775
101.85	6.5784
101.87	6.5795
101.89	6.5805
101.90	6.5815
101.92	6.5825
101.94	6.5833
101.95	6.5839
101.97	6.5848
101.99	6.5857
102.00	6.5863
102.02	6.5874
102.03	6.5884
102.05	6.5891
102.07	6.5899
102.08	6.5906
102.10	6.5916
102.12	6.5925
102.14	6.5932
102.15	6.5940
102.17	6.5948
102.19	6.5959
102.20	6.5968
102.22	6.5978
102.24	6.5987
102.25	6.5996
102.27	6.6003
102.29	6.6010
102.30	6.6017
102.32	6.6028
102.33	6.6035
102.35	6.6043
102.36	6.6053
102.38	6.6061
102.40	6.6068
102.42	6.6078
102.44	6.6086
102.45	6.6093
102.47	6.6101
102.48	6.6110
102.50	6.6115
102.52	6.6123
102.53	6.6131
102.55	6.6137
102.57	6.6145
102.59	6.6153
102.60	6.6162
102.62	6.6170
102.64	6.6178
102.65	6.6185
102.67	6.6192
102.69	6.6201
102.70	6.6209
102.72	6.6218
102.73	6.6226
102.75	6.6232
102.77	6.6240
102.78	6.6247
102.80	6.6255
102.82	6.6264
102.83	6.6271
102.85	6.6279
102.87	6.6292
102.88	6.6300
102.90	6.6310
102.92	6.6318
102.94	6.6326
102.95	6.6335
102.97	6.6342
102.98	6.6351
103.00	6.6357
103.02	6.6367
103.03	6.6376
103.05	6.6382
103.07	6.6392
103.09	6.6400
103.10	6.6409
103.12	6.6418
103.13	6.6426
103.15	6.6437
103.17	6.6446
103.18	6.6457
103.20	6.6466
103.22	6.6475
103.23	6.6484
103.25	6.6492
103.27	6.6501
103.28	6.6509
103.30	6.6515
103.31	6.6524
103.33	6.6534
103.35	6.6541
103.37	6.6551
103.39	6.6561
103.40	6.6570
103.42	6.6579
103.43	6.6587
103.45	6.6594
103.47	6.6602
103.48	6.6613
103.50	6.6620
103.51	6.6629
103.53	6.6636
103.55	6.6642
103.57	6.6651
103.58	6.6659
103.60	6.6667
103.62	6.6676
103.64	6.6685
103.65	6.6693
103.67	6.6699
103.69	6.6708
103.70	6.6716
103.71	6.6724
103.73	6.6729
103.75	6.6737
103.77	6.6747
103.78	6.6754
103.80	6.6760
103.82	6.6767
103.83	6.6773
103.85	6.6780
103.87	6.6790
103.88	6.6798
103.90	6.6807
103.92	6.6817
103.94	6.6827
103.95	6.6837
103.97	6.6843
103.99	6.6851
104.00	6.6859
104.02	6.6867
104.04	6.6875
104.05	6.6883
104.07	6.6890
104.08	6.6899
104.10	6.6908
104.12	6.6919
104.13	6.6927
104.15	6.6937
104.17	6.6948
104.18	6.6957
104.20	6.6966
104.21	6.6975
104.24	6.6985
104.25	6.6996
104.27	6.7003
104.28	6.7013
104.30	6.7021
104.31	6.7029
104.33	6.7038
104.35	6.7047
104.37	6.7059
104.39	6.7069
104.40	6.7079
104.42	6.7087
104.43	6.7096
104.45	6.7107
104.47	6.7116
104.48	6.7125
104.50	6.7133
104.52	6.7142
104.53	6.7153
104.55	6.7162
104.56	6.7168
104.58	6.7173
104.60	6.7182
104.62	6.7189
104.63	6.7199
104.65	6.7207
104.67	6.7215
104.69	6.7224
104.70	6.7233
104.72	6.7242
104.73	6.7251
104.75	6.7258
104.76	6.7267
104.78	6.7272
104.80	6.7281
104.82	6.7290
104.83	6.7299
104.85	6.7307
104.86	6.7315
104.88	6.7323
104.90	6.7334
104.92	6.7345
104.93	6.7352
104.95	6.7361
104.97	6.7369
104.98	6.7377
105.00	6.7384
105.02	6.7392
105.03	6.7401
105.05	6.7410
105.06	6.7418
105.08	6.7427
105.10	6.7436
105.12	6.7445
105.13	6.7454
105.15	6.7462
105.17	6.7471
105.18	6.7480
105.20	6.7490
105.21	6.7499
105.23	6.7507
105.25	6.7516
105.26	6.7527
105.28	6.7534
105.30	6.7543
105.31	6.7552
105.33	6.7561
105.35	6.7569
105.36	6.7579
105.38	6.7588
105.40	6.7598
105.42	6.7609
105.43	6.7617
105.45	6.7625
105.47	6.7633
105.48	6.7643
105.50	6.7652
105.52	6.7664
105.53	6.7672
105.55	6.7681
105.57	6.7690
105.58	6.7699
105.60	6.7708
105.61	6.7716
105.63	6.7726
105.65	6.7734
105.67	6.7744
105.68	6.7754
105.70	6.7763
105.71	6.7773
105.73	6.7781
105.75	6.7791
105.76	6.7799
105.78	6.7808
105.80	6.7817
105.81	6.7826
105.83	6.7834
105.85	6.7843
105.86	6.7853
105.88	6.7863
105.90	6.7872
105.91	6.7882
105.93	6.7890
105.95	6.7898
105.96	6.7905
105.98	6.7912
106.00	6.7923
106.02	6.7931
106.03	6.7939
106.05	6.7948
106.06	6.7959
106.08	6.7966
106.10	6.7973
106.11	6.7981
106.13	6.7993
106.15	6.8001
106.16	6.8010
106.18	6.8020
106.20	6.8029
106.21	6.8035
106.23	6.8043
106.25	6.8052
106.27	6.8059
106.28	6.8067
106.30	6.8072
106.31	6.8080
106.33	6.8089
106.35	6.8099
106.36	6.8107
106.38	6.8116
106.40	6.8127
106.41	6.8136
106.43	6.8145
106.44	6.8154
106.46	6.8162
106.48	6.8170
106.50	6.8180
106.51	6.8186
106.53	6.8195
106.55	6.8202
106.56	6.8210
106.58	6.8218
106.60	6.8227
106.61	6.8236
106.63	6.8245
106.65	6.8256
106.67	6.8264
106.68	6.8274
106.70	6.8284
106.71	6.8294
106.73	6.8302
106.75	6.8311
106.76	6.8319
106.78	6.8328
106.80	6.8335
106.82	6.8343
106.83	6.8352
106.85	6.8361
106.87	6.8371
106.88	6.8380
106.90	6.8391
106.91	6.8401
106.93	6.8409
106.95	6.8420
106.96	6.8431
106.98	6.8438
107.00	6.8447
107.01	6.8454
107.03	6.8462
107.05	6.8470
107.06	6.8476
107.08	6.8482
107.10	6.8492
107.11	6.8500
107.13	6.8510
107.15	6.8521
107.16	6.8530
107.18	6.8538
107.20	6.8547
107.21	6.8556
107.22	6.8562
107.24	6.8572
107.26	6.8581
107.28	6.8590
107.29	6.8596
107.31	6.8604
107.33	6.8611
107.35	6.8620
107.36	6.8630
107.38	6.8640
107.39	6.8650
107.41	6.8660
107.43	6.8667
107.44	6.8674
107.46	6.8682
107.48	6.8690
107.50	6.8698
107.51	6.8708
107.53	6.8717
107.54	6.8725
107.56	6.8735
107.58	6.8745
107.59	6.8754
107.61	6.8765
107.63	6.8773
107.64	6.8785
107.66	6.8794
107.68	6.8804
107.69	6.8815
107.70	6.8825
107.73	6.8833
107.75	6.8842
107.76	6.8853
107.78	6.8861
107.80	6.8868
107.81	6.8877
107.83	6.8886
107.84	6.8895
107.86	6.8906
107.88	6.8917
107.90	6.8926
107.91	6.8937
107.93	6.8948
107.95	6.8959
107.96	6.8971
107.98	6.8978
107.99	6.8988
108.01	6.8997
108.03	6.9006
108.04	6.9016
108.06	6.9025
108.08	6.9033
108.09	6.9043
108.11	6.9052
108.13	6.9060
108.14	6.9072
108.16	6.9084
108.17	6.9093
108.19	6.9105
108.21	6.9116
108.23	6.9126
108.25	6.9134
108.26	6.9143
108.28	6.9152
108.29	6.9162
108.31	6.9172
108.32	6.9181
108.34	6.9191
108.36	6.9203
108.38	6.9213
108.39	6.9224
108.40	6.9233
108.43	6.9244
108.44	6.9253
108.46	6.9263
108.47	6.9273
108.49	6.9283
108.51	6.9291
108.53	6.9302
108.54	6.9308
108.56	6.9318
108.58	6.9327
108.59	6.9337
108.61	6.9346
108.63	6.9357
108.64	6.9366
108.65	6.9375
108.68	6.9386
108.69	6.9397
108.71	6.9407
108.72	6.9416
108.74	6.9424
108.76	6.9432
108.78	6.9440
108.79	6.9448
108.80	6.9457
108.82	6.9465
108.84	6.9474
108.86	6.9484
108.88	6.9495
108.89	6.9504
108.91	6.9514
108.93	6.9525
108.94	6.9531
108.95	6.9541
108.97	6.9550
108.99	6.9556
109.01	6.9566
109.03	6.9575
109.04	6.9583
109.05	6.9593
109.08	6.9600
109.09	6.9610
109.10	6.9618
109.13	6.9625
109.14	6.9633
109.16	6.9642
109.18	6.9653
109.19	6.9661
109.21	6.9670
109.23	6.9680
109.24	6.9688
109.26	6.9696
109.28	6.9705
109.29	6.9713
109.31	6.9721
109.33	6.9729
109.34	6.9735
109.36	6.9745
109.38	6.9753
109.39	6.9762
109.40	6.9773
109.43	6.9783
109.44	6.9791
109.46	6.9800
109.48	6.9810
109.49	6.9818
109.51	6.9827
109.53	6.9837
109.54	6.9847
109.56	6.9855
109.58	6.9866
109.59	6.9873
109.61	6.9882
109.63	6.9891
109.64	6.9900
109.66	6.9909
109.68	6.9919
109.69	6.9930
109.71	6.9938
109.72	6.9948
109.74	6.9959
109.76	6.9968
109.78	6.9980
109.79	6.9988
109.81	6.9997
109.82	7.0003
109.84	7.0012
109.86	7.0024
109.88	7.0033
109.89	7.0043
109.91	7.0053
109.93	7.0065
109.94	7.0076
109.96	7.0085
109.97	7.0094
109.99	7.0104
110.00	7.0112
110.02	7.0120
110.04	7.0130
110.06	7.0140
110.08	7.0147
110.09	7.0156
110.10	7.0163
110.12	7.0173
110.14	7.0184
110.15	7.0191
110.17	7.0202
110.19	7.0211
110.21	7.0221
110.23	7.0231
110.24	7.0241
110.25	7.0249
110.27	7.0258
110.29	7.0266
110.30	7.0274
110.33	7.0282
110.34	7.0290
110.36	7.0300
110.38	7.0310
110.39	7.0320
110.41	7.0327
110.43	7.0336
110.45	7.0346
110.46	7.0356
110.48	7.0366
110.49	7.0375
110.51	7.0385
110.53	7.0394
110.54	7.0404
110.56	7.0414
110.58	7.0424
110.59	7.0434
110.61	7.0442
110.62	7.0451
110.64	7.0460
110.66	7.0470
110.67	7.0479
110.69	7.0490
110.70	7.0498
110.72	7.0507
110.75	7.0517
110.76	7.0525
110.78	7.0536
110.79	7.0546
110.81	7.0551
110.83	7.0562
110.84	7.0569
110.86	7.0577
110.88	7.0587
110.89	7.0598
110.91	7.0610
110.93	7.0621
110.94	7.0632
110.96	7.0640
110.98	7.0650
110.99	7.0659
111.01	7.0667
111.03	7.0677
111.04	7.0687
111.06	7.0695
111.08	7.0704
111.09	7.0712
111.11	7.0722
111.13	7.0731
111.14	7.0741
111.16	7.0750
111.17	7.0762
111.19	7.0773
111.21	7.0784
111.23	7.0796
111.24	7.0805
111.26	7.0813
111.28	7.0823
111.29	7.0828
111.30	7.0835
111.33	7.0844
111.34	7.0856
111.35	7.0864
111.37	7.0876
111.39	7.0885
111.40	7.0894
111.43	7.0905
111.44	7.0914
111.46	7.0922
111.48	7.0931
111.49	7.0940
111.51	7.0949
111.53	7.0957
111.54	7.0966
111.56	7.0972
111.58	7.0980
111.59	7.0987
111.60	7.0994
111.62	7.1004
111.64	7.1016
111.66	7.1023
111.68	7.1034
111.69	7.1044
111.70	7.1050
111.72	7.1060
111.74	7.1070
111.76	7.1079
111.78	7.1087
111.79	7.1096
111.80	7.1105
111.82	7.1114
111.84	7.1123
111.86	7.1135
111.88	7.1143
111.89	7.1152
111.91	7.1161
111.92	7.1169
111.94	7.1179
111.95	7.1187
111.97	7.1197
111.99	7.1206
112.01	7.1214
112.03	7.1226
112.04	7.1233
112.05	7.1242
112.08	7.1252
112.09	7.1260
112.11	7.1271
112.13	7.1282
112.14	7.1293
112.16	7.1302
112.18	7.1311
112.19	7.1322
112.21	7.1330
112.23	7.1340
112.24	7.1351
112.26	7.1357
112.28	7.1367
112.29	7.1376
112.30	7.1386
112.32	7.1395
112.34	7.1405
112.36	7.1414
112.38	7.1426
112.39	7.1437
112.41	7.1449
112.43	7.1458
112.44	7.1469
112.46	7.1477
112.48	7.1488
112.49	7.1499
112.51	7.1509
112.53	7.1519
112.54	7.1527
112.55	7.1536
112.58	7.1547
112.59	7.1555
112.61	7.1563
112.62	7.1573
112.64	7.1583
112.65	7.1594
112.67	7.1604
112.69	7.1615
112.71	7.1624
112.73	7.1635
112.74	7.1647
112.76	7.1657
112.78	7.1666
112.79	7.1676
112.81	7.1686
112.83	7.1694
112.84	7.1705
112.86	7.1715
112.87	7.1725
112.89	7.1737
112.91	7.1745
112.93	7.1756
112.94	7.1767
112.96	7.1774
112.97	7.1783
112.99	7.1791
113.01	7.1800
113.03	7.1809
113.04	7.1819
113.06	7.1826
113.08	7.1835
113.09	7.1845
113.11	7.1853
113.13	7.1864
113.14	7.1876
113.16	7.1885
113.18	7.1896
113.20	7.1907
113.21	7.1916
113.23	7.1927
113.24	7.1937
113.25	7.1946
113.27	7.1956
113.29	7.1966
113.30	7.1975
113.33	7.1985
113.34	7.1994
113.36	7.2004
113.38	7.2015
113.39	7.2025
113.40	7.2035
113.42	7.2046
113.44	7.2058
113.45	7.2068
113.48	7.2078
113.49	7.2089
113.50	7.2096
113.53	7.2106
113.54	7.2116
113.55	7.2125
113.57	7.2133
113.59	7.2142
113.61	7.2151
113.63	7.2163
113.64	7.2173
113.66	7.2182
113.68	7.2193
113.69	7.2202
113.71	7.2213
113.73	7.2221
113.74	7.2229
113.76	7.2236
113.78	7.2247
113.79	7.2257
113.81	7.2263
113.82	7.2270
113.84	7.2279
113.86	7.2289
113.87	7.2298
113.89	7.2307
113.91	7.2318
113.92	7.2329
113.94	7.2334
113.96	7.2345
113.98	7.2355
113.99	7.2365
114.01	7.2374
114.02	7.2384
114.04	7.2392
114.05	7.2402
114.07	7.2413
114.09	7.2418
114.11	7.2428
114.13	7.2439
114.14	7.2447
114.16	7.2457
114.17	7.2468
114.19	7.2479
114.20	7.2489
114.22	7.2499
114.24	7.2509
114.25	7.2519
114.27	7.2528
114.29	7.2535
114.30	7.2543
114.32	7.2552
114.34	7.2562
114.35	7.2571
114.37	7.2581
114.39	7.2591
114.40	7.2602
114.42	7.2613
114.44	7.2622
114.46	7.2630
114.48	7.2639
114.49	7.2646
114.50	7.2654
114.52	7.2665
114.54	7.2673
114.55	7.2680
114.57	7.2690
114.59	7.2701
114.60	7.2709
114.62	7.2720
114.64	7.2729
114.65	7.2741
114.67	7.2751
114.69	7.2760
114.71	7.2768
114.73	7.2777
114.74	7.2786
114.76	7.2792
114.77	7.2802
114.78	7.2810
114.80	7.2821
114.82	7.2828
114.84	7.2838
114.86	7.2850
114.87	7.2860
114.89	7.2872
114.90	7.2881
114.92	7.2893
114.93	7.2902
114.95	7.2913
114.97	7.2920
114.99	7.2930
115.00	7.2939
115.02	7.2948
115.04	7.2957
115.05	7.2967
115.07	7.2976
115.09	7.2985
115.10	7.2995
115.12	7.3004
115.14	7.3017
115.15	7.3028
115.18	7.3041
115.19	7.3049
115.20	7.3060
115.22	7.3071
115.24	7.3081
115.25	7.3091
115.28	7.3099
115.29	7.3110
115.31	7.3119
115.33	7.3128
115.34	7.3140
115.35	7.3150
115.37	7.3162
115.39	7.3174
115.41	7.3185
115.42	7.3197
115.44	7.3205
115.45	7.3216
115.47	7.3226
115.49	7.3236
115.50	7.3247
115.52	7.3258
115.54	7.3264
115.55	7.3272
115.57	7.3280
115.58	7.3290
115.60	7.3301
115.62	7.3312
115.64	7.3319
115.65	7.3327
115.67	7.3338
115.69	7.3349
115.71	7.3359
115.73	7.3370
115.74	7.3378
115.75	7.3385
115.77	7.3394
115.79	7.3401
115.80	7.3410
115.82	7.3420
115.84	7.3427
115.86	7.3437
115.87	7.3448
115.89	7.3456
115.90	7.3468
115.92	7.3477
115.93	7.3487
115.95	7.3496
115.98	7.3506
115.99	7.3514
116.00	7.3523
116.02	7.3530
116.04	7.3538
116.05	7.3545
116.07	7.3553
116.08	7.3563
116.10	7.3573
116.12	7.3582
116.13	7.3592
116.15	7.3604
116.17	7.3613
116.18	7.3623
116.20	7.3634
116.22	7.3646
116.23	7.3656
116.25	7.3663
116.27	7.3672
116.29	7.3682
116.30	7.3691
116.32	7.3702
116.34	7.3711
116.35	7.3724
116.37	7.3732
116.38	7.3743
116.40	7.3753
116.42	7.3766
116.44	7.3776
116.45	7.3787
116.47	7.3797
116.49	7.3806
116.50	7.3816
116.52	7.3826
116.53	7.3836
116.55	7.3844
116.57	7.3856
116.59	7.3863
116.60	7.3875
116.62	7.3885
116.63	7.3895
116.65	7.3907
116.67	7.3919
116.69	7.3924
116.70	7.3937
116.72	7.3946
116.74	7.3956
116.75	7.3968
116.77	7.3977
116.79	7.3986
116.80	7.3997
116.82	7.4007
116.84	7.4019
116.85	7.4029
116.87	7.4042
116.88	7.4051
116.90	7.4061
116.92	7.4071
116.94	7.4080
116.95	7.4090
116.97	7.4102
116.98	7.4113
117.00	7.4125
117.02	7.4133
117.03	7.4145
117.05	7.4154
117.07	7.4165
117.08	7.4175
117.10	7.4184
117.12	7.4198
117.13	7.4207
117.15	7.4218
117.17	7.4229
117.18	7.4238
117.20	7.4246
117.22	7.4256
117.24	7.4268
117.25	7.4279
117.27	7.4288
117.28	7.4297
117.30	7.4307
117.32	7.4315
117.33	7.4324
117.35	7.4335
117.37	7.4347
117.38	7.4358
117.40	7.4369
117.41	7.4381
117.43	7.4389
117.45	7.4399
117.46	7.4411
117.48	7.4420
117.50	7.4431
117.52	7.4442
117.53	7.4449
117.55	7.4458
117.56	7.4468
117.58	7.4476
117.60	7.4487
117.62	7.4499
117.63	7.4508
117.65	7.4517
117.67	7.4527
117.68	7.4537
117.70	7.4546
117.72	7.4556
117.73	7.4566
117.75	7.4577
117.77	7.4588
117.79	7.4598
117.80	7.4608
117.82	7.4615
117.83	7.4625
117.85	7.4636
117.87	7.4647
117.88	7.4656
117.90	7.4668
117.92	7.4677
117.93	7.4686
117.95	7.4694
117.97	7.4702
117.98	7.4709
118.00	7.4718
118.02	7.4728
118.03	7.4738
118.05	7.4747
118.07	7.4757
118.08	7.4766
118.10	7.4775
118.12	7.4785
118.13	7.4795
118.15	7.4807
118.17	7.4818
118.18	7.4828
118.20	7.4838
118.22	7.4847
118.23	7.4855
118.25	7.4862
118.26	7.4870
118.28	7.4878
118.30	7.4889
118.32	7.4899
118.33	7.4909
118.35	7.4918
118.37	7.4930
118.38	7.4941
118.40	7.4952
118.42	7.4964
118.43	7.4974
118.45	7.4982
118.47	7.4991
118.48	7.4998
118.50	7.5008
118.51	7.5015
118.53	7.5024
118.55	7.5034
118.56	7.5044
118.58	7.5053
118.60	7.5062
118.62	7.5074
118.63	7.5083
118.65	7.5093
118.67	7.5105
118.69	7.5117
118.70	7.5128
118.72	7.5138
118.73	7.5145
118.75	7.5154
118.77	7.5163
118.78	7.5171
118.80	7.5180
118.82	7.5191
118.83	7.5202
118.85	7.5210
118.87	7.5224
118.88	7.5236
118.90	7.5242
118.91	7.5251
118.93	7.5263
118.95	7.5274
118.96	7.5280
118.98	7.5289
119.00	7.5299
119.02	7.5307
119.03	7.5316
119.05	7.5326
119.06	7.5336
119.08	7.5346
119.10	7.5357
119.12	7.5369
119.13	7.5381
119.15	7.5392
119.17	7.5401
119.18	7.5411
119.20	7.5420
119.22	7.5429
119.23	7.5439
119.25	7.5449
119.27	7.5456
119.28	7.5465
119.30	7.5474
119.32	7.5485
119.33	7.5495
119.35	7.5508
119.37	7.5520
119.38	7.5530
119.40	7.5541
119.42	7.5551
119.43	7.5562
119.45	7.5572
119.46	7.5581
119.48	7.5591
119.50	7.5602
119.52	7.5610
119.53	7.5621
119.55	7.5632
119.57	7.5642
119.58	7.5654
119.60	7.5664
119.62	7.5674
119.63	7.5682
119.65	7.5692
119.66	7.5703
119.68	7.5713
119.70	7.5722
119.72	7.5732
119.73	7.5743
119.75	7.5750
119.77	7.5759
119.78	7.5768
119.80	7.5779
119.82	7.5789
119.83	7.5801
119.85	7.5810
119.87	7.5821
119.88	7.5833
119.90	7.5842
119.92	7.5853
119.93	7.5863
119.95	7.5874
119.97	7.5886
119.98	7.5897
120.00	7.5909
120.02	7.5919
120.04	7.5928
120.05	7.5938
120.07	7.5947
120.08	7.5958
120.10	7.5969
120.11	7.5980
120.13	7.5991
120.15	7.6001
120.17	7.6011
120.18	7.6022
120.20	7.6033
120.22	7.6041
120.23	7.6050
120.25	7.6058
120.26	7.6070
120.28	7.6080
120.30	7.6091
120.32	7.6101
120.33	7.6112
120.35	7.6125
120.36	7.6136
120.38	7.6149
120.40	7.6159
120.41	7.6169
120.43	7.6178
120.45	7.6187
120.47	7.6197
120.48	7.6207
120.50	7.6217
120.52	7.6227
120.54	7.6237
120.55	7.6247
120.57	7.6258
120.58	7.6268
120.60	7.6281
120.62	7.6290
120.63	7.6303
120.65	7.6313
120.67	7.6323
120.68	7.6334
120.70	7.6344
120.72	7.6354
120.73	7.6362
120.75	7.6371
120.77	7.6381
120.78	7.6392
120.80	7.6401
120.81	7.6412
120.83	7.6424
120.85	7.6435
120.87	7.6445
120.88	7.6458
120.90	7.6468
120.92	7.6477
120.93	7.6489
120.95	7.6501
120.97	7.6509
120.98	7.6518
121.00	7.6529
121.02	7.6537
121.03	7.6547
121.05	7.6558
121.07	7.6570
121.08	7.6581
121.10	7.6592
121.12	7.6603
121.13	7.6616
121.15	7.6625
121.17	7.6635
121.18	7.6644
121.20	7.6653
121.22	7.6662
121.23	7.6670
121.25	7.6681
121.27	7.6688
121.28	7.6698
121.30	7.6707
121.32	7.6718
121.33	7.6729
121.35	7.6739
121.37	7.6750
121.38	7.6760
121.40	7.6769
121.41	7.6779
121.43	7.6789
121.45	7.6795
121.47	7.6804
121.48	7.6814
121.50	7.6823
121.52	7.6833
121.53	7.6844
121.55	7.6856
121.57	7.6866
121.58	7.6878
121.60	7.6890
121.62	7.6900
121.63	7.6912
121.65	7.6921
121.67	7.6929
121.68	7.6939
121.70	7.6947
121.72	7.6958
121.73	7.6970
121.75	7.6980
121.77	7.6992
121.78	7.7002
121.80	7.7012
121.82	7.7024
121.83	7.7038
121.85	7.7050
121.87	7.7061
121.88	7.7071
121.90	7.7083
121.92	7.7092
121.93	7.7102
121.95	7.7112
121.97	7.7121
121.98	7.7132
122.00	7.7140
122.02	7.7150
122.03	7.7161
122.05	7.7172
122.07	7.7184
122.08	7.7196
122.10	7.7206
122.12	7.7217
122.13	7.7227
122.15	7.7237
122.17	7.7247
122.18	7.7257
122.20	7.7270
122.22	7.7280
122.24	7.7288
122.25	7.7299
122.27	7.7306
122.29	7.7318
122.30	7.7330
122.32	7.7341
122.33	7.7352
122.35	7.7364
122.36	7.7373
122.38	7.7386
122.40	7.7395
122.42	7.7405
122.43	7.7417
122.45	7.7427
122.46	7.7434
122.48	7.7445
122.50	7.7455
122.51	7.7465
122.53	7.7475
122.55	7.7485
122.56	7.7497
122.58	7.7505
122.60	7.7515
122.61	7.7527
122.63	7.7537
122.65	7.7550
122.67	7.7561
122.68	7.7570
122.70	7.7579
122.71	7.7588
122.73	7.7598
122.75	7.7608
122.76	7.7615
122.78	7.7627
122.80	7.7638
122.81	7.7647
122.83	7.7658
122.85	7.7668
122.87	7.7677
122.89	7.7690
122.90	7.7699
122.91	7.7709
122.93	7.7721
122.95	7.7731
122.96	7.7740
122.98	7.7751
123.00	7.7761
123.02	7.7771
123.03	7.7783
123.05	7.7794
123.06	7.7805
123.08	7.7815
123.10	7.7825
123.12	7.7836
123.13	7.7847
123.15	7.7858
123.17	7.7866
123.18	7.7878
123.20	7.7887
123.22	7.7899
123.23	7.7908
123.25	7.7919
123.27	7.7930
123.28	7.7942
123.30	7.7955
123.32	7.7966
123.33	7.7977
123.35	7.7990
123.36	7.8002
123.38	7.8013
123.40	7.8024
123.41	7.8035
123.43	7.8046
123.45	7.8058
123.46	7.8068
123.48	7.8080
123.50	7.8091
123.52	7.8104
123.53	7.8117
123.55	7.8129
123.57	7.8142
123.58	7.8153
123.60	7.8165
123.62	7.8175
123.63	7.8185
123.65	7.8194
123.66	7.8202
123.68	7.8213
123.70	7.8223
123.71	7.8235
123.73	7.8245
123.75	7.8257
123.77	7.8265
123.78	7.8276
123.80	7.8288
123.81	7.8300
123.83	7.8311
123.85	7.8322
123.86	7.8333
123.88	7.8344
123.90	7.8353
123.92	7.8364
123.93	7.8374
123.95	7.8382
123.97	7.8393
123.98	7.8401
124.00	7.8410
124.02	7.8420
124.03	7.8432
124.05	7.8443
124.06	7.8455
124.08	7.8467
124.10	7.8477
124.11	7.8487
124.13	7.8498
124.15	7.8509
124.16	7.8518
124.18	7.8530
124.20	7.8539
124.21	7.8549
124.23	7.8559
124.25	7.8568
124.26	7.8579
124.28	7.8593
124.30	7.8604
124.31	7.8615
124.33	7.8628
124.35	7.8639
124.36	7.8647
124.38	7.8660
124.40	7.8672
124.41	7.8682
124.43	7.8692
124.45	7.8702
124.47	7.8712
124.48	7.8721
124.50	7.8731
124.52	7.8743
124.53	7.8753
124.55	7.8764
124.56	7.8775
124.58	7.8786
124.59	7.8799
124.61	7.8810
124.63	7.8821
124.65	7.8832
124.66	7.8843
124.68	7.8853
124.70	7.8863
124.71	7.8875
124.73	7.8886
124.75	7.8896
124.76	7.8907
124.78	7.8917
124.80	7.8926
124.82	7.8937
124.83	7.8949
124.84	7.8961
124.86	7.8974
124.88	7.8984
124.90	7.8994
124.92	7.9005
124.93	7.9015
124.95	7.9022
124.96	7.9033
124.98	7.9043
125.00	7.9054
125.01	7.9066
125.03	7.9076
125.05	7.9087
125.06	7.9098
125.08	7.9109
125.10	7.9120
125.11	7.9132
125.13	7.9143
125.15	7.9154
125.16	7.9165
125.18	7.9174
125.20	7.9185
125.21	7.9195
125.23	7.9206
125.25	7.9215
125.26	7.9228
125.28	7.9242
125.30	7.9254
125.31	7.9266
125.33	7.9277
125.35	7.9287
125.36	7.9298
125.38	7.9311
125.40	7.9322
125.41	7.9332
125.43	7.9343
125.45	7.9352
125.46	7.9361
125.48	7.9373
125.50	7.9385
125.51	7.9396
125.53	7.9408
125.54	7.9418
125.56	7.9429
125.58	7.9440
125.59	7.9449
125.61	7.9458
125.63	7.9467
125.65	7.9476
125.66	7.9486
125.68	7.9495
125.70	7.9506
125.71	7.9515
125.73	7.9525
125.74	7.9537
125.77	7.9548
125.78	7.9558
125.80	7.9568
125.81	7.9581
125.83	7.9593
125.84	7.9603
125.86	7.9614
125.88	7.9624
125.90	7.9634
125.91	7.9646
125.93	7.9656
125.94	7.9667
125.96	7.9675
125.98	7.9688
126.00	7.9698
126.01	7.9711
126.03	7.9722
126.04	7.9733
126.06	7.9743
126.08	7.9755
126.09	7.9765
126.11	7.9777
126.13	7.9787
126.14	7.9798
126.16	7.9810
126.18	7.9821
126.19	7.9832
126.21	7.9844
126.23	7.9853
126.24	7.9864
126.26	7.9878
126.28	7.9891
126.30	7.9903
126.31	7.9915
126.33	7.9927
126.34	7.9936
126.36	7.9948
126.38	7.9959
126.39	7.9968
126.41	7.9979
126.43	7.9987
126.45	7.9998
126.46	8.0006
126.48	8.0019
126.50	8.0030
126.51	8.0040
126.53	8.0052
126.54	8.0061
126.56	8.0072
126.58	8.0082
126.60	8.0092
126.61	8.0101
126.63	8.0110
126.64	8.0122
126.66	8.0132
126.68	8.0142
126.70	8.0154
126.71	8.0164
126.73	8.0174
126.75	8.0184
126.76	8.0195
126.78	8.0207
126.79	8.0217
126.81	8.0227
126.83	8.0239
126.85	8.0248
126.86	8.0256
126.88	8.0268
126.89	8.0277
126.91	8.0290
126.93	8.0300
126.95	8.0310
126.96	8.0321
126.98	8.0334
126.99	8.0344
127.01	8.0358
127.02	8.0368
127.04	8.0378
127.06	8.0389
127.08	8.0399
127.09	8.0409
127.11	8.0421
127.13	8.0430
127.14	8.0441
127.15	8.0452
127.17	8.0465
127.19	8.0476
127.21	8.0488
127.23	8.0501
127.25	8.0511
127.26	8.0520
127.28	8.0533
127.29	8.0544
127.30	8.0559
127.32	8.0570
127.34	8.0581
127.36	8.0593
127.37	8.0604
127.39	8.0616
127.41	8.0627
127.43	8.0639
127.44	8.0648
127.46	8.0659
127.48	8.0671
127.49	8.0683
127.51	8.0694
127.53	8.0706
127.54	8.0718
127.56	8.0729
127.58	8.0740
127.59	8.0750
127.61	8.0762
127.63	8.0773
127.64	8.0783
127.66	8.0794
127.68	8.0805
127.69	8.0817
127.70	8.0830
127.73	8.0840
127.75	8.0854
127.76	8.0864
127.78	8.0876
127.79	8.0888
127.81	8.0898
127.83	8.0910
127.84	8.0920
127.86	8.0931
127.88	8.0942
127.89	8.0954
127.91	8.0967
127.93	8.0978
127.94	8.0988
127.95	8.1001
127.98	8.1014
127.99	8.1027
128.01	8.1040
128.03	8.1051
128.04	8.1063
128.06	8.1073
128.07	8.1086
128.09	8.1097
128.11	8.1109
128.13	8.1122
128.14	8.1132
128.15	8.1144
128.18	8.1154
128.19	8.1165
128.21	8.1178
128.22	8.1189
128.24	8.1202
128.26	8.1215
128.28	8.1226
128.29	8.1236
128.31	8.1248
128.32	8.1260
128.34	8.1273
128.36	8.1283
128.37	8.1296
128.39	8.1307
128.41	8.1318
128.43	8.1329
128.44	8.1338
128.46	8.1351
128.47	8.1365
128.49	8.1376
128.51	8.1389
128.53	8.1401
128.54	8.1412
128.55	8.1424
128.58	8.1436
128.60	8.1447
128.61	8.1461
128.63	8.1471
128.64	8.1483
128.66	8.1495
128.68	8.1507
128.69	8.1519
128.71	8.1530
128.73	8.1543
128.74	8.1556
128.76	8.1566
128.78	8.1577
128.79	8.1586
128.81	8.1598
128.82	8.1608
128.84	8.1617
128.85	8.1629
128.87	8.1642
128.89	8.1651
128.91	8.1660
128.92	8.1670
128.94	8.1681
128.95	8.1693
128.97	8.1704
128.99	8.1715
129.01	8.1727
129.03	8.1738
129.04	8.1749
129.06	8.1758
129.07	8.1770
129.09	8.1779
129.11	8.1791
129.13	8.1801
129.14	8.1813
129.16	8.1824
129.18	8.1834
129.19	8.1846
129.21	8.1858
129.22	8.1868
129.24	8.1879
129.26	8.1891
129.28	8.1903
129.29	8.1913
129.31	8.1925
129.32	8.1936
129.34	8.1949
129.36	8.1959
129.38	8.1968
129.39	8.1980
129.41	8.1992
129.43	8.2002
129.44	8.2013
129.46	8.2024
129.47	8.2035
129.49	8.2048
129.51	8.2059
129.52	8.2070
129.54	8.2083
129.56	8.2095
129.57	8.2107
129.59	8.2118
129.61	8.2130
129.63	8.2140
129.65	8.2150
129.66	8.2160
129.68	8.2170
129.69	8.2184
129.71	8.2198
129.73	8.2211
129.74	8.2223
129.76	8.2235
129.78	8.2245
129.79	8.2257
129.81	8.2268
129.82	8.2281
129.85	8.2291
129.86	8.2305
129.88	8.2316
129.89	8.2325
129.91	8.2338
129.93	8.2350
129.94	8.2362
129.96	8.2372
129.98	8.2387
129.99	8.2399
130.01	8.2409
130.03	8.2421
130.04	8.2435
130.06	8.2446
130.07	8.2459
130.09	8.2470
130.11	8.2481
130.13	8.2490
130.15	8.2501
130.16	8.2513
130.18	8.2523
130.19	8.2536
130.21	8.2549
130.23	8.2560
130.24	8.2573
130.26	8.2584
130.28	8.2596
130.29	8.2607
130.31	8.2617
130.33	8.2628
130.34	8.2639
130.36	8.2651
130.38	8.2661
130.40	8.2672
130.41	8.2683
130.43	8.2693
130.44	8.2705
130.46	8.2717
130.47	8.2728
130.49	8.2741
130.51	8.2753
130.53	8.2763
130.54	8.2773
130.56	8.2785
130.58	8.2795
130.59	8.2805
130.60	8.2814
130.63	8.2825
130.65	8.2834
130.66	8.2847
130.68	8.2860
130.69	8.2871
130.71	8.2884
130.72	8.2894
130.74	8.2908
130.76	8.2919
130.78	8.2930
130.79	8.2941
130.81	8.2954
130.82	8.2965
130.84	8.2977
130.86	8.2988
130.88	8.2999
130.89	8.3010
130.90	8.3023
130.93	8.3037
130.94	8.3049
130.96	8.3061
130.97	8.3074
130.99	8.3088
131.01	8.3098
131.03	8.3111
131.04	8.3123
131.06	8.3134
131.07	8.3145
131.09	8.3157
131.11	8.3168
131.13	8.3178
131.14	8.3191
131.16	8.3206
131.18	8.3218
131.19	8.3231
131.21	8.3244
131.22	8.3258
131.24	8.3272
131.26	8.3283
131.28	8.3295
131.29	8.3307
131.31	8.3319
131.32	8.3332
131.34	8.3344
131.35	8.3356
131.38	8.3368
131.39	8.3379
131.41	8.3392
131.43	8.3405
131.44	8.3417
131.46	8.3427
131.47	8.3441
131.49	8.3451
131.51	8.3464
131.53	8.3474
131.54	8.3486
131.56	8.3498
131.58	8.3508
131.60	8.3517
131.61	8.3528
131.63	8.3537
131.64	8.3549
131.66	8.3562
131.68	8.3573
131.69	8.3585
131.71	8.3596
131.72	8.3608
131.75	8.3619
131.76	8.3629
131.78	8.3640
131.79	8.3650
131.81	8.3662
131.82	8.3673
131.85	8.3685
131.86	8.3696
131.88	8.3707
131.89	8.3719
131.91	8.3733
131.93	8.3744
131.94	8.3756
131.96	8.3768
131.97	8.3778
132.00	8.3789
132.01	8.3802
132.03	8.3814
132.04	8.3826
132.06	8.3838
132.07	8.3849
132.10	8.3858
132.11	8.3870
132.13	8.3882
132.15	8.3894
132.17	8.3906
132.18	8.3920
132.19	8.3932
132.21	8.3946
132.22	8.3958
132.25	8.3971
132.26	8.3986
132.28	8.3998
132.29	8.4010
132.31	8.4022
132.32	8.4034
132.34	8.4044
132.36	8.4055
132.38	8.4068
132.40	8.4080
132.41	8.4094
132.43	8.4106
132.45	8.4119
132.46	8.4133
132.48	8.4145
132.50	8.4157
132.51	8.4169
132.53	8.4183
132.54	8.4195
132.56	8.4208
132.57	8.4221
132.59	8.4232
132.61	8.4246
132.63	8.4257
132.65	8.4268
132.66	8.4282
132.68	8.4295
132.69	8.4306
132.71	8.4321
132.73	8.4335
132.74	8.4347
132.76	8.4359
132.78	8.4372
132.79	8.4381
132.81	8.4395
132.82	8.4406
132.84	8.4418
132.86	8.4432
132.88	8.4444
132.90	8.4458
132.91	8.4472
132.93	8.4483
132.94	8.4498
132.96	8.4510
132.97	8.4523
132.99	8.4536
133.01	8.4548
133.03	8.4556
133.05	8.4569
133.06	8.4581
133.07	8.4591
133.09	8.4603
133.11	8.4613
133.13	8.4626
133.14	8.4638
133.15	8.4653
133.18	8.4665
133.19	8.4677
133.21	8.4689
133.22	8.4702
133.24	8.4713
133.26	8.4724
133.28	8.4737
133.29	8.4749
133.31	8.4762
133.32	8.4773
133.35	8.4783
133.36	8.4796
133.38	8.4807
133.40	8.4820
133.41	8.4834
133.43	8.4846
133.44	8.4861
133.46	8.4872
133.48	8.4883
133.50	8.4897
133.51	8.4910
133.53	8.4923
133.55	8.4935
133.56	8.4947
133.57	8.4960
133.59	8.4970
133.61	8.4983
133.63	8.4996
133.65	8.5009
133.66	8.5022
133.68	8.5035
133.69	8.5048
133.71	8.5061
133.72	8.5073
133.75	8.5086
133.76	8.5098
133.78	8.5108
133.80	8.5120
133.81	8.5131
133.82	8.5143
133.84	8.5156
133.86	8.5171
133.87	8.5183
133.89	8.5197
133.91	8.5210
133.93	8.5222
133.94	8.5232
133.96	8.5244
133.97	8.5256
133.99	8.5268
134.01	8.5281
134.03	8.5294
134.04	8.5306
134.06	8.5318
134.08	8.5329
134.09	8.5341
134.12	8.5355
134.12	8.5367
134.14	8.5377
134.17	8.5390
134.19	8.5403
134.20	8.5416
134.22	8.5429
134.22	8.5442
134.23	8.5454
134.25	8.5466
134.28	8.5477
134.28	8.5489
134.31	8.5500
134.32	8.5512
134.34	8.5526
134.36	8.5539
134.38	8.5553
134.39	8.5564
134.41	8.5577
134.43	8.5589
134.44	8.5601
134.46	8.5615
134.47	8.5628
134.49	8.5640
134.51	8.5652
134.53	8.5666
134.54	8.5676
134.56	8.5687
134.57	8.5698
134.59	8.5709
134.60	8.5719
134.63	8.5731
134.64	8.5745
134.66	8.5758
134.68	8.5770
134.69	8.5782
134.71	8.5795
134.72	8.5808
134.74	8.5820
134.76	8.5831
134.78	8.5842
134.79	8.5852
134.81	8.5865
134.83	8.5877
134.84	8.5892
134.86	8.5904
134.88	8.5915
134.89	8.5928
134.91	8.5940
134.93	8.5953
134.94	8.5964
134.96	8.5977
134.97	8.5988
134.99	8.6001
135.01	8.6013
135.03	8.6024
135.04	8.6035
135.05	8.6046
135.07	8.6058
135.09	8.6068
135.11	8.6080
135.13	8.6093
135.15	8.6106
135.16	8.6117
135.18	8.6129
135.19	8.6143
135.21	8.6155
135.23	8.6169
135.25	8.6181
135.26	8.6193
135.28	8.6203
135.30	8.6214
135.31	8.6225
135.32	8.6238
135.35	8.6251
135.35	8.6264
135.37	8.6275
135.39	8.6287
135.41	8.6301
135.43	8.6310
135.44	8.6323
135.46	8.6332
135.47	8.6343
135.49	8.6356
135.50	8.6368
135.52	8.6380
135.54	8.6392
135.55	8.6404
135.57	8.6417
135.59	8.6430
135.61	8.6443
135.62	8.6455
135.63	8.6467
135.65	8.6478
135.67	8.6489
135.69	8.6502
135.71	8.6516
135.72	8.6528
135.74	8.6539
135.76	8.6549
135.77	8.6559
135.79	8.6571
135.80	8.6584
135.82	8.6597
135.84	8.6613
135.85	8.6625
135.88	8.6638
135.89	8.6650
135.90	8.6663
135.93	8.6676
135.94	8.6689
135.96	8.6700
135.97	8.6712
135.99	8.6726
136.01	8.6739
136.03	8.6752
136.04	8.6765
136.05	8.6778
136.07	8.6790
136.09	8.6804
136.11	8.6819
136.13	8.6834
136.14	8.6848
136.15	8.6862
136.18	8.6877
136.19	8.6890
136.20	8.6904
136.22	8.6915
136.24	8.6927
136.25	8.6939
136.28	8.6951
136.29	8.6967
136.31	8.6980
136.32	8.6995
136.34	8.7011
136.35	8.7023
136.37	8.7036
136.39	8.7049
136.40	8.7063
136.42	8.7077
136.44	8.7089
136.45	8.7103
136.47	8.7115
136.49	8.7130
136.51	8.7141
136.53	8.7153
136.54	8.7167
136.55	8.7179
136.57	8.7193
136.59	8.7206
136.60	8.7217
136.62	8.7230
136.64	8.7242
136.65	8.7256
136.67	8.7266
136.69	8.7278
136.70	8.7290
136.72	8.7303
136.74	8.7315
136.75	8.7326
136.78	8.7338
136.79	8.7351
136.80	8.7363
136.82	8.7377
136.84	8.7391
136.85	8.7403
136.88	8.7417
136.89	8.7430
136.91	8.7443
136.92	8.7455
136.94	8.7467
136.96	8.7478
136.97	8.7492
136.99	8.7505
137.00	8.7515
137.02	8.7528
137.04	8.7542
137.05	8.7554
137.08	8.7568
137.09	8.7581
137.10	8.7593
137.13	8.7606
137.14	8.7618
137.16	8.7631
137.18	8.7644
137.19	8.7656
137.21	8.7668
137.22	8.7680
137.24	8.7693
137.26	8.7705
137.28	8.7718
137.29	8.7731
137.31	8.7744
137.33	8.7756
137.34	8.7770
137.36	8.7783
137.38	8.7796
137.39	8.7808
137.40	8.7820
137.42	8.7831
137.44	8.7843
137.45	8.7855
137.47	8.7864
137.49	8.7877
137.51	8.7891
137.52	8.7903
137.54	8.7916
137.56	8.7929
137.58	8.7942
137.59	8.7956
137.60	8.7971
137.63	8.7984
137.64	8.7995
137.65	8.8008
137.67	8.8020
137.69	8.8031
137.71	8.8044
137.72	8.8056
137.75	8.8067
137.76	8.8081
137.78	8.8094
137.79	8.8107
137.80	8.8120
137.83	8.8133
137.84	8.8145
137.86	8.8157
137.88	8.8170
137.89	8.8184
137.91	8.8196
137.93	8.8209
137.94	8.8221
137.95	8.8231
137.97	8.8243
137.99	8.8256
138.00	8.8269
138.03	8.8282
138.04	8.8293
138.06	8.8305
138.08	8.8318
138.09	8.8332
138.11	8.8344
138.13	8.8357
138.14	8.8370
138.16	8.8383
138.18	8.8396
138.19	8.8409
138.21	8.8420
138.22	8.8433
138.24	8.8446
138.26	8.8458
138.28	8.8474
138.29	8.8487
138.31	8.8500
138.33	8.8515
138.34	8.8527
138.36	8.8540
138.38	8.8555
138.39	8.8568
138.41	8.8579
138.43	8.8591
138.44	8.8605
138.46	8.8617
138.48	8.8631
138.49	8.8644
138.51	8.8657
138.53	8.8672
138.54	8.8684
138.56	8.8697
138.58	8.8711
138.59	8.8725
138.61	8.8736
138.63	8.8749
138.64	8.8763
138.66	8.8775
138.68	8.8788
138.69	8.8801
138.71	8.8814
138.72	8.8826
138.74	8.8840
138.76	8.8854
138.78	8.8866
138.79	8.8878
138.81	8.8890
138.83	8.8901
138.84	8.8916
138.86	8.8927
138.88	8.8940
138.89	8.8953
138.91	8.8965
138.93	8.8980
138.94	8.8993
138.96	8.9005
138.97	8.9019
138.99	8.9033
139.01	8.9046
139.03	8.9059
139.05	8.9074
139.06	8.9089
139.08	8.9103
139.10	8.9116
139.11	8.9127
139.13	8.9139
139.15	8.9151
139.16	8.9163
139.18	8.9175
139.19	8.9188
139.21	8.9202
139.22	8.9213
139.24	8.9225
139.26	8.9241
139.28	8.9252
139.29	8.9266
139.31	8.9280
139.33	8.9294
139.34	8.9305
139.36	8.9319
139.38	8.9332
139.39	8.9345
139.41	8.9358
139.43	8.9373
139.44	8.9384
139.46	8.9398
139.48	8.9411
139.50	8.9425
139.51	8.9440
139.53	8.9453
139.55	8.9467
139.56	8.9481
139.58	8.9495
139.59	8.9509
139.61	8.9521
139.63	8.9535
139.65	8.9549
139.66	8.9560
139.68	8.9573
139.69	8.9585
139.71	8.9598
139.72	8.9613
139.74	8.9625
139.76	8.9640
139.78	8.9656
139.80	8.9671
139.81	8.9684
139.83	8.9698
139.84	8.9712
139.86	8.9725
139.88	8.9740
139.89	8.9753
139.91	8.9767
139.93	8.9781
139.94	8.9793
139.96	8.9807
139.97	8.9820
140.00	8.9834
140.01	8.9848
140.03	8.9864
140.05	8.9877
140.06	8.9892
140.08	8.9906
140.09	8.9917
140.11	8.9930
140.13	8.9943
140.15	8.9955
140.16	8.9970
140.18	8.9983
140.19	8.9995
140.21	9.0007
140.23	9.0021
140.24	9.0035
140.26	9.0048
140.28	9.0061
140.29	9.0072
140.31	9.0085
140.33	9.0098
140.34	9.0110
140.36	9.0123
140.38	9.0135
140.40	9.0147
140.41	9.0161
140.43	9.0174
140.44	9.0186
140.46	9.0199
140.48	9.0213
140.50	9.0223
140.51	9.0239
140.53	9.0253
140.54	9.0266
140.56	9.0280
140.58	9.0295
140.60	9.0308
140.61	9.0322
140.63	9.0333
140.64	9.0346
140.66	9.0360
140.68	9.0373
140.69	9.0387
140.71	9.0402
140.72	9.0417
140.75	9.0430
140.76	9.0444
140.78	9.0459
140.80	9.0474
140.81	9.0487
140.83	9.0502
140.85	9.0515
140.86	9.0527
140.88	9.0541
140.90	9.0553
140.91	9.0567
140.93	9.0584
140.94	9.0596
140.96	9.0612
140.98	9.0627
141.00	9.0641
141.01	9.0653
141.03	9.0668
141.05	9.0680
141.07	9.0693
141.08	9.0710
141.10	9.0722
141.11	9.0738
141.13	9.0750
141.14	9.0763
141.16	9.0778
141.18	9.0791
141.19	9.0805
141.21	9.0821
141.23	9.0838
141.25	9.0851
141.26	9.0867
141.28	9.0880
141.30	9.0893
141.31	9.0909
141.33	9.0925
141.35	9.0939
141.36	9.0954
141.38	9.0968
141.40	9.0983
141.41	9.0997
141.43	9.1013
141.44	9.1027
141.46	9.1046
141.48	9.1061
141.50	9.1077
141.51	9.1091
141.53	9.1107
141.55	9.1121
141.56	9.1136
141.58	9.1150
141.59	9.1163
141.61	9.1177
141.63	9.1192
141.65	9.1208
141.66	9.1225
141.68	9.1242
141.70	9.1258
141.72	9.1275
141.73	9.1293
141.75	9.1307
141.76	9.1321
141.78	9.1337
141.80	9.1350
141.81	9.1365
141.83	9.1378
141.85	9.1391
141.86	9.1405
141.88	9.1420
141.90	9.1435
141.91	9.1450
141.93	9.1466
141.94	9.1480
141.96	9.1496
141.98	9.1513
142.00	9.1528
142.01	9.1544
142.03	9.1559
142.05	9.1574
142.06	9.1589
142.08	9.1606
142.10	9.1622
142.11	9.1639
142.13	9.1655
142.15	9.1668
142.16	9.1685
142.18	9.1701
142.19	9.1717
142.21	9.1733
142.23	9.1749
142.25	9.1763
142.26	9.1779
142.28	9.1791
142.30	9.1808
142.31	9.1821
142.33	9.1836
142.35	9.1851
142.36	9.1867
142.38	9.1882
142.40	9.1899
142.42	9.1915
142.43	9.1931
142.44	9.1947
142.47	9.1963
142.48	9.1978
142.50	9.1992
142.52	9.2008
142.53	9.2024
142.55	9.2039
142.56	9.2054
142.58	9.2068
142.60	9.2079
142.61	9.2094
142.63	9.2108
142.65	9.2124
142.66	9.2139
142.68	9.2155
142.69	9.2171
142.71	9.2187
142.73	9.2203
142.75	9.2217
142.76	9.2232
142.78	9.2248
142.80	9.2265
142.82	9.2280
142.83	9.2295
142.85	9.2310
142.87	9.2326
142.88	9.2342
142.90	9.2359
142.92	9.2377
142.93	9.2392
142.94	9.2410
142.96	9.2427
142.98	9.2444
143.00	9.2458
143.01	9.2474
143.03	9.2488
143.05	9.2503
143.06	9.2521
143.08	9.2537
143.09	9.2552
143.11	9.2570
143.13	9.2587
143.15	9.2602
143.16	9.2619
143.18	9.2636
143.19	9.2655
143.21	9.2674
143.23	9.2688
143.25	9.2704
143.26	9.2721
143.28	9.2736
143.30	9.2752
143.31	9.2768
143.33	9.2783
143.35	9.2801
143.36	9.2817
143.38	9.2835
143.40	9.2851
143.41	9.2869
143.43	9.2885
143.44	9.2902
143.46	9.2917
143.48	9.2934
143.49	9.2949
143.51	9.2964
143.53	9.2983
143.54	9.2999
143.56	9.3015
143.58	9.3030
143.60	9.3046
143.61	9.3065
143.63	9.3085
143.65	9.3101
143.66	9.3118
143.68	9.3134
143.69	9.3149
143.71	9.3168
143.73	9.3185
143.75	9.3200
143.76	9.3216
143.78	9.3234
143.79	9.3251
143.81	9.3267
143.83	9.3284
143.85	9.3301
143.86	9.3318
143.88	9.3334
143.90	9.3352
143.91	9.3370
143.93	9.3387
143.94	9.3402
143.97	9.3417
143.98	9.3434
144.00	9.3450
144.01	9.3466
144.03	9.3483
144.05	9.3501
144.07	9.3518
144.08	9.3536
144.10	9.3553
144.11	9.3568
144.13	9.3587
144.15	9.3604
144.16	9.3623
144.18	9.3641
144.19	9.3659
144.21	9.3677
144.22	9.3695
144.24	9.3712
144.26	9.3729
144.27	9.3748
144.29	9.3765
144.31	9.3781
144.33	9.3800
144.34	9.3817
144.36	9.3835
144.38	9.3853
144.40	9.3870
144.41	9.3888
144.43	9.3907
144.44	9.3924
144.46	9.3944
144.48	9.3962
144.50	9.3980
144.51	9.3998
144.53	9.4016
144.54	9.4034
144.56	9.4052
144.58	9.4070
144.59	9.4088
144.61	9.4106
144.63	9.4125
144.64	9.4143
144.66	9.4160
144.68	9.4179
144.69	9.4198
144.71	9.4216
144.73	9.4235
144.75	9.4252
144.76	9.4270
144.78	9.4285
144.79	9.4304
144.81	9.4321
144.83	9.4338
144.85	9.4358
144.86	9.4377
144.88	9.4394
144.90	9.4413
144.91	9.4431
144.93	9.4448
144.94	9.4466
144.96	9.4482
144.98	9.4501
144.99	9.4519
145.01	9.4537
145.03	9.4554
145.04	9.4572
145.06	9.4591
145.08	9.4607
145.09	9.4626
145.11	9.4644
145.13	9.4661
145.14	9.4678
145.16	9.4696
145.18	9.4714
145.19	9.4732
145.21	9.4750
145.23	9.4766
145.25	9.4786
145.26	9.4806
145.28	9.4821
145.29	9.4839
145.31	9.4858
145.33	9.4875
145.34	9.4892
145.36	9.4909
145.38	9.4927
145.39	9.4944
145.41	9.4961
145.42	9.4978
145.44	9.4994
145.46	9.5012
145.47	9.5031
145.50	9.5049
145.51	9.5067
145.53	9.5085
145.54	9.5103
145.55	9.5120
145.57	9.5136
145.59	9.5152
145.61	9.5170
145.63	9.5186
145.64	9.5204
145.66	9.5221
145.68	9.5238
145.69	9.5257
145.70	9.5275
145.72	9.5292
145.74	9.5310
145.76	9.5328
145.78	9.5344
145.79	9.5360
145.81	9.5378
145.83	9.5393
145.84	9.5411
145.86	9.5428
145.88	9.5446
145.89	9.5464
145.91	9.5481
145.93	9.5498
145.94	9.5515
145.96	9.5532
145.97	9.5545
145.99	9.5563
146.01	9.5581
146.03	9.5597
146.04	9.5613
146.06	9.5631
146.08	9.5651
146.09	9.5667
146.10	9.5684
146.12	9.5700
146.14	9.5717
146.15	9.5731
146.17	9.5746
146.19	9.5760
146.21	9.5777
146.22	9.5792
146.24	9.5807
146.26	9.5821
146.27	9.5838
146.29	9.5852
146.30	9.5867
146.32	9.5881
146.34	9.5895
146.36	9.5912
146.38	9.5928
146.39	9.5943
146.40	9.5956
146.43	9.5970
146.44	9.5985
146.45	9.5998
146.47	9.6010
146.48	9.6026
146.50	9.6040
146.52	9.6053
146.54	9.6065
146.56	9.6079
146.57	9.6092
146.59	9.6105
146.60	9.6119
146.62	9.6131
146.64	9.6143
146.65	9.6159
146.67	9.6171
146.69	9.6186
146.70	9.6199
146.72	9.6212
146.74	9.6227
146.75	9.6239
146.77	9.6251
146.79	9.6263
146.80	9.6276
146.82	9.6285
146.84	9.6294
146.85	9.6308
146.87	9.6319
146.89	9.6330
146.90	9.6343
146.92	9.6354
146.94	9.6366
146.96	9.6378
146.97	9.6388
146.99	9.6397
147.00	9.6410
147.02	9.6419
147.04	9.6432
147.05	9.6446
147.07	9.6457
147.09	9.6467
147.10	9.6479
147.12	9.6489
147.14	9.6499
147.15	9.6510
147.17	9.6520
147.19	9.6529
147.20	9.6539
147.22	9.6548
147.24	9.6557
147.25	9.6566
147.27	9.6574
147.29	9.6585
147.30	9.6595
147.32	9.6603
147.34	9.6612
147.35	9.6621
147.37	9.6630
147.39	9.6638
147.40	9.6646
147.42	9.6653
147.44	9.6662
147.46	9.6669
147.47	9.6675
147.49	9.6683
147.50	9.6693
147.52	9.6698
147.54	9.6707
147.55	9.6716
147.57	9.6722
147.58	9.6729
147.61	9.6738
147.62	9.6746
147.64	9.6754
147.65	9.6760
147.67	9.6767
147.69	9.6776
147.70	9.6784
147.72	9.6793
147.74	9.6802
147.75	9.6813
147.77	9.6821
147.79	9.6829
147.80	9.6840
147.82	9.6848
147.83	9.6857
147.85	9.6867
147.87	9.6876
147.88	9.6887
147.90	9.6897
147.92	9.6908
147.93	9.6919
147.95	9.6929
147.97	9.6936
147.99	9.6945
148.00	9.6956
148.02	9.6966
148.04	9.6974
148.05	9.6983
148.07	9.6991
148.08	9.7001
148.10	9.7009
148.12	9.7019
148.13	9.7030
148.15	9.7040
148.17	9.7049
148.18	9.7059
148.20	9.7069
148.22	9.7077
148.24	9.7085
148.25	9.7094
148.27	9.7103
148.28	9.7114
148.30	9.7126
148.32	9.7135
148.33	9.7146
148.35	9.7155
148.37	9.7164
148.38	9.7174
148.40	9.7183
148.42	9.7191
148.44	9.7200
148.45	9.7209
148.47	9.7217
148.48	9.7227
148.50	9.7237
148.52	9.7246
148.53	9.7256
148.55	9.7268
148.57	9.7278
148.58	9.7290
148.60	9.7301
148.62	9.7310
148.63	9.7322
148.65	9.7332
148.67	9.7341
148.69	9.7352
148.70	9.7362
148.72	9.7376
148.73	9.7389
148.75	9.7401
148.77	9.7412
148.79	9.7424
148.80	9.7436
148.82	9.7449
148.83	9.7460
148.85	9.7472
148.87	9.7484
148.88	9.7495
148.90	9.7512
148.92	9.7525
148.93	9.7539
148.94	9.7553
148.97	9.7566
148.97	9.7582
148.98	9.7596
149.00	9.7608
149.03	9.7623
149.05	9.7636
149.07	9.7650
149.09	9.7663
149.10	9.7679
149.12	9.7694
149.14	9.7711
149.15	9.7726
149.17	9.7742
149.18	9.7756
149.20	9.7770
149.22	9.7785
149.23	9.7801
149.25	9.7818
149.27	9.7833
149.28	9.7850
149.30	9.7867
149.32	9.7883
149.33	9.7900
149.35	9.7916
149.37	9.7930
149.38	9.7946
149.40	9.7961
149.42	9.7978
149.43	9.7995
149.45	9.8012
149.47	9.8030
149.48	9.8047
149.50	9.8063
149.51	9.8082
149.53	9.8099
149.55	9.8115
149.56	9.8134
149.58	9.8154
149.60	9.8172
149.61	9.8190
149.63	9.8209
149.65	9.8228
149.67	9.8247
149.68	9.8265
149.70	9.8282
149.71	9.8300
149.73	9.8320
149.75	9.8338
149.76	9.8357
149.78	9.8377
149.80	9.8398
149.81	9.8418
149.83	9.8438
149.85	9.8458
149.87	9.8477
149.88	9.8497
149.90	9.8515
149.91	9.8536
149.93	9.8558
149.94	9.8579
149.96	9.8600
149.98	9.8622
150.00	9.8643
150.01	9.8664
150.03	9.8685
150.05	9.8706
150.06	9.8728
150.08	9.8750
150.10	9.8772
150.11	9.8796
150.13	9.8818
150.15	9.8840
150.16	9.8863
150.17	9.8886
150.19	9.8910
150.21	9.8935
150.22	9.8957
150.25	9.8977
150.26	9.9000
150.28	9.9022
150.30	9.9046
150.31	9.9070
150.33	9.9094
150.35	9.9114
150.36	9.9138
150.38	9.9161
150.40	9.9186
150.41	9.9207
150.43	9.9231
150.44	9.9253
150.46	9.9276
150.48	9.9298
150.50	9.9320
150.51	9.9343
150.53	9.9366
150.55	9.9388
150.57	9.9412
150.58	9.9437
150.60	9.9463
150.61	9.9488
150.63	9.9512
150.65	9.9536
150.67	9.9559
150.68	9.9583
150.69	9.9608
150.71	9.9633
150.72	9.9656
150.75	9.9679
150.76	9.9705
150.78	9.9731
150.80	9.9755
150.81	9.9778
150.83	9.9804
150.85	9.9828
150.86	9.9855
150.88	9.9880
150.89	9.9904
150.90	9.9929
150.92	9.9955
150.94	9.9980
150.96	10.0006
150.98	10.0032
151.00	10.0055
151.01	10.0080
151.03	10.0105
151.04	10.0128
151.06	10.0152
151.08	10.0178
151.09	10.0201
151.11	10.0226
151.13	10.0250
151.14	10.0274
151.16	10.0301
151.18	10.0328
151.19	10.0352
151.21	10.0378
151.23	10.0403
151.24	10.0426
151.26	10.0450
151.28	10.0473
151.30	10.0496
151.31	10.0521
151.33	10.0546
151.35	10.0570
151.36	10.0595
151.38	10.0621
151.40	10.0647
151.41	10.0670
151.43	10.0695
151.44	10.0719
151.46	10.0743
151.48	10.0765
151.49	10.0786
151.51	10.0812
151.53	10.0838
151.54	10.0863
151.56	10.0888
151.57	10.0912
151.59	10.0937
151.61	10.0961
151.62	10.0985
151.64	10.1010
151.65	10.1036
151.67	10.1059
151.69	10.1083
151.71	10.1108
151.72	10.1133
151.75	10.1157
151.76	10.1181
151.78	10.1206
151.79	10.1231
151.80	10.1255
151.83	10.1280
151.84	10.1303
151.85	10.1328
151.87	10.1353
151.89	10.1378
151.90	10.1400
151.93	10.1425
151.94	10.1451
151.95	10.1477
151.97	10.1502
151.99	10.1527
152.01	10.1552
152.02	10.1580
152.04	10.1604
152.05	10.1630
152.07	10.1656
152.09	10.1681
152.11	10.1708
152.13	10.1733
152.14	10.1757
152.16	10.1783
152.18	10.1807
152.19	10.1833
152.20	10.1858
152.22	10.1884
152.24	10.1907
152.25	10.1935
152.27	10.1960
152.29	10.1984
152.31	10.2009
152.33	10.2035
152.34	10.2060
152.35	10.2086
152.37	10.2112
152.39	10.2136
152.40	10.2162
152.43	10.2187
152.44	10.2212
152.46	10.2237
152.47	10.2264
152.49	10.2288
152.50	10.2314
152.53	10.2338
152.54	10.2362
152.55	10.2388
152.57	10.2413
152.59	10.2439
152.60	10.2464
152.62	10.2489
152.64	10.2512
152.65	10.2535
152.67	10.2561
152.69	10.2585
152.70	10.2610
152.72	10.2635
152.74	10.2660
152.75	10.2684
152.77	10.2709
152.79	10.2734
152.80	10.2760
152.82	10.2783
152.84	10.2806
152.85	10.2830
152.87	10.2853
152.89	10.2877
152.90	10.2902
152.92	10.2927
152.93	10.2948
152.95	10.2973
152.97	10.2998
152.99	10.3021
153.00	10.3045
153.02	10.3070
153.04	10.3094
153.05	10.3118
153.07	10.3142
153.09	10.3164
153.10	10.3188
153.12	10.3212
153.14	10.3234
153.15	10.3258
153.17	10.3284
153.19	10.3310
153.20	10.3332
153.22	10.3356
153.23	10.3380
153.25	10.3403
153.27	10.3426
153.29	10.3447
153.30	10.3470
153.32	10.3493
153.34	10.3519
153.35	10.3541
153.37	10.3564
153.38	10.3588
153.40	10.3612
153.42	10.3637
153.44	10.3658
153.45	10.3682
153.47	10.3707
153.48	10.3731
153.50	10.3756
153.52	10.3778
153.53	10.3802
153.55	10.3827
153.57	10.3851
153.59	10.3874
153.60	10.3901
153.62	10.3928
153.63	10.3951
153.65	10.3974
153.66	10.3998
153.68	10.4020
153.70	10.4043
153.72	10.4065
153.73	10.4087
153.75	10.4114
153.77	10.4137
153.78	10.4161
153.80	10.4186
153.82	10.4211
153.83	10.4233
153.85	10.4257
153.87	10.4282
153.88	10.4306
153.90	10.4329
153.92	10.4353
153.93	10.4374
153.95	10.4396
153.97	10.4422
153.98	10.4444
154.00	10.4470
154.02	10.4494
154.03	10.4519
154.05	10.4543
154.07	10.4567
154.08	10.4590
154.10	10.4615
154.12	10.4640
154.13	10.4663
154.15	10.4688
154.17	10.4712
154.18	10.4737
154.20	10.4760
154.22	10.4783
154.23	10.4808
154.25	10.4834
154.27	10.4857
154.28	10.4880
154.30	10.4905
154.32	10.4928
154.33	10.4953
154.35	10.4976
154.36	10.5000
154.38	10.5026
154.40	10.5051
154.41	10.5075
154.43	10.5097
154.44	10.5122
154.46	10.5147
154.48	10.5171
154.50	10.5195
154.51	10.5220
154.53	10.5244
154.55	10.5270
154.56	10.5294
154.58	10.5320
154.60	10.5345
154.61	10.5371
154.63	10.5397
154.65	10.5423
154.66	10.5447
154.68	10.5474
154.69	10.5499
154.71	10.5524
154.73	10.5548
154.75	10.5575
154.76	10.5599
154.78	10.5627
154.80	10.5654
154.81	10.5682
154.83	10.5707
154.85	10.5732
154.86	10.5758
154.88	10.5783
154.90	10.5809
154.91	10.5834
154.93	10.5860
154.94	10.5886
154.96	10.5912
154.98	10.5938
154.99	10.5964
155.01	10.5991
155.03	10.6018
155.05	10.6046
155.06	10.6072
155.08	10.6097
155.10	10.6124
155.11	10.6148
155.13	10.6174
155.15	10.6201
155.16	10.6225
155.18	10.6252
155.19	10.6280
155.21	10.6307
155.22	10.6334
155.25	10.6360
155.26	10.6386
155.28	10.6413
155.29	10.6440
155.31	10.6466
155.33	10.6493
155.35	10.6520
155.36	10.6545
155.38	10.6574
155.39	10.6603
155.41	10.6630
155.43	10.6658
155.44	10.6686
155.46	10.6712
155.48	10.6740
155.50	10.6768
155.51	10.6794
155.53	10.6823
155.54	10.6850
155.56	10.6878
155.58	10.6907
155.60	10.6937
155.61	10.6964
155.63	10.6995
155.64	10.7026
155.66	10.7054
155.68	10.7083
155.69	10.7113
155.71	10.7144
155.73	10.7175
155.75	10.7203
155.76	10.7233
155.78	10.7264
155.79	10.7294
155.81	10.7325
155.83	10.7356
155.84	10.7388
155.86	10.7418
155.88	10.7449
155.90	10.7479
155.91	10.7509
155.93	10.7538
155.94	10.7569
155.96	10.7599
155.97	10.7629
155.99	10.7660
156.01	10.7691
156.03	10.7723
156.05	10.7755
156.06	10.7786
156.08	10.7819
156.09	10.7849
156.11	10.7881
156.13	10.7915
156.14	10.7947
156.16	10.7979
156.18	10.8012
156.19	10.8044
156.21	10.8076
156.22	10.8110
156.24	10.8143
156.26	10.8175
156.28	10.8207
156.29	10.8239
156.31	10.8273
156.33	10.8305
156.34	10.8337
156.36	10.8371
156.38	10.8404
156.39	10.8438
156.41	10.8471
156.43	10.8506
156.44	10.8542
156.46	10.8575
156.47	10.8608
156.49	10.8643
156.51	10.8678
156.53	10.8710
156.54	10.8746
156.56	10.8779
156.57	10.8815
156.59	10.8850
156.61	10.8884
156.63	10.8918
156.64	10.8954
156.65	10.8988
156.68	10.9024
156.69	10.9058
156.71	10.9094
156.72	10.9129
156.74	10.9164
156.76	10.9197
156.77	10.9235
156.79	10.9270
156.81	10.9306
156.83	10.9343
156.84	10.9381
156.86	10.9416
156.88	10.9452
156.89	10.9489
156.91	10.9525
156.93	10.9560
156.94	10.9593
156.96	10.9628
156.97	10.9661
156.99	10.9698
157.01	10.9734
157.03	10.9770
157.04	10.9806
157.06	10.9844
157.08	10.9881
157.09	10.9916
157.11	10.9955
157.12	10.9992
157.14	11.0029
157.16	11.0067
157.17	11.0104
157.19	11.0143
157.21	11.0181
157.22	11.0219
157.24	11.0258
157.26	11.0296
157.28	11.0334
157.29	11.0372
157.31	11.0411
157.33	11.0450
157.34	11.0488
157.35	11.0525
157.38	11.0563
157.39	11.0605
157.40	11.0643
157.42	11.0684
157.44	11.0725
157.45	11.0767
157.47	11.0807
157.49	11.0847
157.51	11.0888
157.53	11.0928
157.54	11.0969
157.56	11.1010
157.58	11.1049
157.59	11.1089
157.61	11.1129
157.63	11.1169
157.64	11.1209
157.65	11.1250
157.68	11.1293
157.69	11.1333
157.70	11.1376
157.72	11.1419
157.74	11.1461
157.75	11.1504
157.77	11.1545
157.79	11.1588
157.81	11.1632
157.83	11.1677
157.84	11.1720
157.86	11.1763
157.88	11.1806
157.89	11.1852
157.91	11.1895
157.93	11.1938
157.94	11.1983
157.95	11.2027
157.97	11.2073
157.99	11.2120
158.00	11.2164
158.03	11.2212
158.04	11.2259
158.06	11.2307
158.07	11.2354
158.09	11.2401
158.11	11.2447
158.13	11.2493
158.14	11.2540
158.15	11.2586
158.17	11.2630
158.19	11.2680
158.20	11.2728
158.22	11.2776
158.24	11.2824
158.25	11.2872
158.27	11.2920
158.29	11.2967
158.30	11.3014
158.32	11.3061
158.34	11.3109
158.35	11.3158
158.37	11.3206
158.39	11.3254
158.40	11.3304
158.42	11.3354
158.44	11.3405
158.46	11.3455
158.47	11.3507
158.49	11.3556
158.50	11.3606
158.52	11.3657
158.54	11.3707
158.55	11.3757
158.57	11.3809
158.59	11.3858
158.61	11.3909
158.63	11.3960
158.64	11.4012
158.65	11.4064
158.68	11.4115
158.69	11.4169
158.71	11.4220
158.72	11.4273
158.74	11.4325
158.75	11.4375
158.77	11.4428
158.79	11.4483
158.80	11.4535
158.83	11.4589
158.84	11.4644
158.85	11.4698
158.87	11.4752
158.89	11.4806
158.90	11.4859
158.92	11.4912
158.94	11.4966
158.95	11.5020
158.97	11.5075
158.99	11.5127
159.00	11.5183
159.02	11.5238
159.04	11.5293
159.06	11.5349
159.07	11.5406
159.09	11.5461
159.10	11.5518
159.12	11.5574
159.14	11.5630
159.15	11.5686
159.18	11.5740
159.19	11.5794
159.20	11.5852
159.22	11.5909
159.24	11.5966
159.25	11.6022
159.27	11.6079
159.29	11.6134
159.30	11.6188
159.33	11.6243
159.34	11.6296
159.35	11.6350
159.37	11.6403
159.38	11.6457
159.40	11.6511
159.42	11.6567
159.43	11.6623
159.45	11.6678
159.47	11.6733
159.48	11.6788
159.50	11.6841
159.52	11.6898
159.54	11.6955
159.55	11.7011
159.57	11.7068
159.59	11.7125
159.60	11.7184
159.62	11.7242
159.64	11.7301
159.65	11.7362
159.67	11.7422
159.69	11.7483
159.71	11.7546
159.72	11.7606
159.73	11.7665
159.75	11.7727
159.78	11.7790
159.79	11.7852
159.80	11.7916
159.82	11.7977
159.83	11.8040
159.85	11.8102
159.87	11.8164
159.89	11.8227
159.90	11.8292
159.92	11.8355
159.94	11.8416
159.95	11.8481
159.97	11.8547
159.99	11.8612
160.00	11.8676
160.02	11.8742
160.03	11.8806
160.05	11.8872
160.07	11.8937
160.08	11.9002
160.10	11.9066
160.12	11.9131
160.14	11.9197
160.15	11.9261
160.17	11.9325
160.19	11.9390
160.20	11.9455
160.22	11.9522
160.23	11.9587
160.25	11.9653
160.27	11.9718
160.28	11.9783
160.30	11.9847
160.32	11.9915
160.34	11.9979
160.35	12.0048
160.37	12.0115
160.38	12.0180
160.40	12.0245
160.42	12.0314
160.43	12.0377
160.45	12.0444
160.47	12.0511
160.48	12.0578
160.50	12.0645
160.52	12.0713
160.54	12.0778
160.55	12.0847
160.57	12.0913
160.59	12.0980
160.60	12.1048
160.62	12.1116
160.64	12.1182
160.65	12.1252
160.67	12.1319
160.68	12.1387
160.70	12.1457
160.72	12.1526
160.73	12.1594
160.75	12.1664
160.77	12.1730
160.78	12.1798
160.80	12.1867
160.82	12.1936
160.84	12.2006
160.85	12.2076
160.87	12.2145
160.88	12.2214
160.90	12.2282
160.92	12.2352
160.94	12.2421
160.95	12.2489
160.97	12.2560
160.98	12.2629
161.00	12.2699
161.02	12.2769
161.03	12.2839
161.05	12.2910
161.07	12.2981
161.09	12.3051
161.10	12.3119
161.12	12.3190
161.13	12.3260
161.15	12.3330
161.17	12.3400
161.18	12.3469
161.20	12.3538
161.22	12.3609
161.23	12.3677
161.25	12.3746
161.26	12.3817
161.28	12.3885
161.30	12.3955
161.32	12.4026
161.33	12.4094
161.35	12.4164
161.37	12.4233
161.38	12.4301
161.40	12.4371
161.41	12.4438
161.43	12.4506
161.45	12.4575
161.47	12.4643
161.48	12.4714
161.50	12.4782
161.51	12.4851
161.53	12.4919
161.55	12.4987
161.57	12.5056
161.58	12.5124
161.60	12.5190
161.62	12.5258
161.63	12.5326
161.65	12.5394
161.67	12.5463
161.68	12.5530
161.69	12.5598
161.71	12.5666
161.73	12.5734
161.75	12.5801
161.77	12.5869
161.78	12.5937
161.80	12.6006
161.81	12.6077
161.83	12.6146
161.85	12.6216
161.86	12.6286
161.88	12.6354
161.90	12.6423
161.91	12.6491
161.93	12.6559
161.94	12.6625
161.96	12.6694
161.98	12.6761
162.00	12.6828
162.01	12.6894
162.03	12.6963
162.05	12.7027
162.07	12.7095
162.08	12.7160
162.09	12.7227
162.11	12.7295
162.13	12.7359
162.14	12.7424
162.16	12.7490
162.18	12.7557
162.19	12.7622
162.21	12.7686
162.22	12.7750
162.25	12.7814
162.26	12.7876
162.28	12.7937
162.30	12.7999
162.32	12.8061
162.33	12.8122
162.35	12.8184
162.36	12.8246
162.38	12.8307
162.40	12.8368
162.41	12.8429
162.43	12.8490
162.44	12.8552
162.46	12.8614
162.48	12.8675
162.50	12.8734
162.51	12.8796
162.53	12.8854
162.55	12.8914
162.56	12.8973
162.58	12.9031
162.60	12.9090
162.61	12.9149
162.63	12.9207
162.65	12.9264
162.67	12.9320
162.68	12.9373
162.69	12.9424
162.72	12.9468
162.73	12.9508
162.75	12.9545
162.76	12.9576
162.78	12.9606
162.80	12.9634
162.81	12.9662
162.83	12.9688
162.85	12.9714
162.86	12.9744
162.88	12.9772
162.90	12.9803
162.91	12.9835
162.93	12.9870
162.94	12.9907
162.96	12.9944
162.98	12.9983
163.00	13.0025
163.01	13.0068
163.03	13.0114
163.05	13.0161
163.06	13.0210
163.08	13.0259
163.10	13.0308
163.11	13.0361
163.13	13.0413
163.15	13.0465
163.16	13.0518
163.18	13.0570
163.19	13.0625
163.21	13.0680
163.23	13.0735
163.24	13.0791
163.26	13.0846
163.28	13.0900
163.29	13.0956
163.31	13.1010
163.33	13.1067
163.35	13.1122
163.36	13.1177
163.38	13.1232
163.40	13.1287
163.41	13.1343
163.43	13.1398
163.44	13.1452
163.46	13.1507
163.47	13.1559
163.49	13.1613
163.51	13.1665
163.53	13.1720
163.54	13.1773
163.56	13.1824
163.58	13.1876
163.59	13.1928
163.61	13.1981
163.63	13.2031
163.64	13.2083
163.66	13.2135
163.68	13.2189
163.69	13.2239
163.71	13.2291
163.72	13.2340
163.74	13.2394
163.76	13.2443
163.78	13.2493
163.79	13.2546
163.81	13.2595
163.82	13.2645
163.84	13.2693
163.85	13.2741
163.88	13.2790
163.89	13.2839
163.91	13.2888
163.92	13.2936
163.94	13.2985
163.95	13.3035
163.97	13.3081
163.99	13.3128
164.01	13.3178
164.03	13.3225
164.04	13.3274
164.06	13.3320
164.08	13.3367
164.09	13.3413
164.11	13.3460
164.13	13.3506
164.14	13.3551
164.16	13.3597
164.18	13.3642
164.19	13.3687
164.21	13.3732
164.22	13.3776
164.24	13.3821
164.26	13.3867
164.27	13.3909
164.29	13.3954
164.31	13.3999
164.32	13.4044
164.34	13.4087
164.35	13.4129
164.38	13.4172
164.39	13.4215
164.41	13.4258
164.43	13.4299
164.44	13.4344
164.46	13.4387
164.47	13.4429
164.49	13.4473
164.50	13.4514
164.53	13.4557
164.54	13.4600
164.55	13.4641
164.57	13.4680
164.58	13.4721
164.60	13.4763
164.62	13.4804
164.64	13.4847
164.66	13.4883
164.68	13.4925
164.69	13.4964
164.70	13.5005
164.72	13.5044
164.74	13.5083
164.75	13.5121
164.77	13.5160
164.79	13.5198
164.80	13.5236
164.82	13.5273
164.84	13.5313
164.85	13.5348
164.87	13.5386
164.89	13.5423
164.90	13.5461
164.93	13.5498
164.94	13.5534
164.95	13.5572
164.97	13.5606
164.99	13.5642
165.01	13.5678
165.03	13.5713
165.05	13.5749
165.06	13.5784
165.07	13.5821
165.09	13.5857
165.10	13.5892
165.12	13.5927
165.14	13.5963
165.16	13.5996
165.18	13.6031
165.19	13.6065
165.20	13.6097
165.22	13.6131
165.24	13.6167
165.25	13.6199
165.28	13.6234
165.29	13.6267
165.31	13.6300
165.33	13.6334
165.34	13.6367
165.35	13.6400
165.37	13.6434
165.39	13.6467
165.41	13.6500
165.43	13.6534
165.44	13.6566
165.45	13.6597
165.47	13.6631
165.49	13.6665
165.50	13.6697
165.52	13.6728
165.54	13.6760
165.56	13.6792
165.58	13.6822
165.59	13.6853
165.61	13.6883
165.63	13.6914
165.64	13.6946
165.66	13.6977
165.68	13.7009
165.69	13.7040
165.70	13.7071
165.72	13.7102
165.74	13.7133
165.75	13.7161
165.77	13.7190
165.79	13.7221
165.80	13.7248
165.83	13.7278
165.84	13.7306
165.86	13.7335
165.88	13.7363
165.89	13.7393
165.90	13.7422
165.92	13.7450
165.94	13.7479
165.95	13.7507
165.97	13.7535
165.99	13.7562
166.00	13.7591
166.02	13.7619
166.04	13.7647
166.05	13.7673
166.07	13.7702
166.09	13.7730
166.10	13.7754
166.12	13.7782
166.14	13.7807
166.15	13.7831
166.17	13.7856
166.19	13.7878
166.20	13.7902
166.22	13.7926
166.24	13.7949
166.26	13.7970
166.27	13.7992
166.29	13.8015
166.30	13.8035
166.32	13.8055
166.33	13.8075
166.35	13.8094
166.37	13.8112
166.39	13.8130
166.40	13.8148
166.42	13.8166
166.44	13.8183
166.45	13.8199
166.47	13.8215
166.49	13.8232
166.51	13.8246
166.52	13.8261
166.54	13.8274
166.55	13.8287
166.57	13.8300
166.58	13.8313
166.60	13.8323
166.62	13.8336
166.64	13.8347
166.65	13.8357
166.67	13.8369
166.69	13.8380
166.70	13.8390
166.72	13.8398
166.74	13.8409
166.76	13.8416
166.78	13.8424
166.79	13.8431
166.80	13.8439
166.83	13.8445
166.84	13.8451
166.85	13.8456
166.87	13.8460
166.88	13.8466
166.90	13.8467
166.92	13.8471
166.94	13.8472
166.96	13.8475
166.97	13.8476
166.99	13.8476
167.00	13.8477
167.02	13.8477
167.04	13.8477
167.05	13.8473
167.07	13.8472
167.08	13.8469
167.10	13.8466
167.12	13.8458
167.13	13.8454
167.15	13.8447
167.17	13.8441
167.18	13.8436
167.20	13.8428
167.22	13.8420
167.24	13.8411
167.26	13.8401
167.27	13.8391
167.29	13.8383
167.30	13.8372
167.32	13.8360
167.34	13.8350
167.35	13.8337
167.37	13.8323
167.39	13.8309
167.40	13.8293
167.42	13.8280
167.44	13.8264
167.45	13.8248
167.47	13.8232
167.48	13.8213
167.50	13.8193
167.52	13.8174
167.53	13.8155
167.55	13.8134
167.57	13.8113
167.58	13.8088
167.60	13.8063
167.62	13.8037
167.63	13.8012
167.65	13.7986
167.67	13.7960
167.68	13.7932
167.70	13.7901
167.72	13.7872
167.74	13.7840
167.75	13.7806
167.77	13.7773
167.79	13.7738
167.80	13.7702
167.82	13.7663
167.83	13.7626
167.85	13.7585
167.87	13.7545
167.89	13.7504
167.90	13.7463
167.92	13.7418
167.94	13.7374
167.96	13.7328
167.97	13.7282
167.98	13.7233
168.00	13.7184
168.02	13.7134
168.04	13.7082
168.05	13.7031
168.07	13.6978
168.09	13.6923
168.10	13.6867
168.12	13.6810
168.13	13.6751
168.15	13.6692
168.17	13.6629
168.19	13.6569
168.20	13.6505
168.22	13.6443
168.24	13.6376
168.25	13.6310
168.27	13.6243
168.29	13.6176
168.30	13.6107
168.33	13.6035
168.34	13.5966
168.35	13.5890
168.37	13.5817
168.39	13.5740
168.41	13.5663
168.42	13.5585
168.44	13.5504
168.45	13.5424
168.47	13.5342
168.49	13.5259
168.50	13.5176
168.52	13.5088
168.54	13.5000
168.55	13.4912
168.57	13.4820
168.59	13.4730
168.60	13.4635
168.62	13.4541
168.64	13.4445
168.65	13.4348
168.67	13.4249
168.69	13.4149
168.70	13.4048
168.72	13.3945
168.74	13.3840
168.75	13.3733
168.77	13.3625
168.79	13.3515
168.80	13.3403
168.82	13.3291
168.84	13.3180
168.85	13.3064
168.87	13.2947
168.89	13.2831
168.90	13.2712
168.92	13.2589
168.94	13.2468
168.95	13.2343
168.97	13.2218
168.99	13.2092
169.00	13.1963
169.02	13.1833
169.04	13.1703
169.05	13.1572
169.07	13.1436
169.08	13.1301
169.10	13.1164
169.12	13.1026
169.14	13.0886
169.15	13.0746
169.17	13.0602
169.19	13.0459
169.20	13.0315
169.22	13.0169
169.24	13.0023
169.25	12.9875
169.27	12.9726
169.29	12.9576
169.30	12.9424
169.33	12.9269
169.34	12.9117
169.35	12.8960
169.37	12.8803
169.39	12.8644
169.40	12.8483
169.42	12.8322
169.43	12.8162
169.45	12.7999
169.47	12.7835
169.48	12.7672
169.50	12.7505
169.52	12.7339
169.54	12.7170
169.55	12.7000
169.57	12.6829
169.59	12.6658
169.60	12.6486
169.62	12.6312
169.63	12.6139
169.65	12.5961
169.67	12.5786
169.69	12.5608
169.70	12.5431
169.72	12.5254
169.73	12.5074
169.75	12.4896
169.77	12.4716
169.79	12.4535
169.80	12.4352
169.82	12.4172
169.84	12.3989
169.85	12.3806
169.87	12.3623
169.88	12.3440
169.90	12.3257
169.92	12.3073
169.94	12.2889
169.95	12.2707
169.97	12.2522
169.98	12.2339
170.00	12.2155
170.02	12.1972
170.03	12.1787
170.05	12.1606
170.07	12.1423
170.09	12.1241
170.10	12.1058
170.12	12.0877
170.14	12.0693
170.15	12.0511
170.17	12.0328
170.18	12.0145
170.20	11.9964
170.22	11.9781
170.23	11.9602
170.25	11.9427
170.27	11.9249
170.29	11.9072
170.30	11.8895
170.32	11.8719
170.34	11.8546
170.35	11.8373
170.37	11.8198
170.39	11.8026
170.40	11.7854
170.42	11.7685
170.44	11.7516
170.45	11.7349
170.47	11.7183
170.49	11.7018
170.50	11.6855
170.52	11.6694
170.53	11.6534
170.56	11.6374
170.58	11.6215
170.60	11.6059
170.61	11.5901
170.62	11.5747
170.63	11.5595
170.65	11.5443
170.67	11.5297
170.69	11.5150
170.70	11.5004
170.72	11.4860
170.74	11.4720
170.75	11.4580
170.77	11.4443
170.78	11.4307
170.80	11.4171
170.82	11.4039
170.84	11.3909
170.85	11.3781
170.88	11.3654
170.89	11.3529
170.90	11.3406
170.93	11.3284
170.94	11.3166
170.95	11.3049
170.97	11.2932
170.99	11.2817
171.00	11.2705
171.02	11.2596
171.04	11.2488
171.05	11.2382
171.07	11.2278
171.09	11.2177
171.10	11.2077
171.12	11.1979
171.14	11.1881
171.15	11.1787
171.17	11.1694
171.19	11.1601
171.20	11.1510
171.22	11.1424
171.24	11.1339
171.25	11.1255
171.27	11.1172
171.29	11.1092
171.30	11.1012
171.32	11.0936
171.34	11.0858
171.35	11.0785
171.37	11.0712
171.38	11.0641
171.40	11.0571
171.42	11.0506
171.43	11.0440
171.45	11.0377
171.47	11.0314
171.49	11.0254
171.50	11.0196
171.53	11.0139
171.54	11.0080
171.55	11.0026
171.57	10.9973
171.58	10.9921
171.60	10.9872
171.62	10.9823
171.64	10.9777
171.65	10.9730
171.67	10.9686
171.69	10.9646
171.70	10.9603
171.72	10.9563
171.73	10.9523
171.75	10.9485
171.77	10.9450
171.78	10.9415
171.80	10.9384
171.82	10.9352
171.84	10.9320
171.85	10.9289
171.87	10.9259
171.88	10.9230
171.90	10.9204
171.92	10.9176
171.93	10.9150
171.95	10.9127
171.97	10.9104
171.98	10.9078
172.00	10.9058
172.02	10.9037
172.03	10.9014
172.05	10.8996
172.07	10.8978
172.08	10.8960
172.10	10.8944
172.12	10.8927
172.13	10.8911
172.15	10.8896
172.17	10.8884
172.18	10.8869
172.20	10.8857
172.22	10.8847
172.24	10.8834
172.25	10.8828
172.27	10.8816
172.28	10.8806
172.30	10.8799
172.32	10.8793
172.33	10.8785
172.35	10.8779
172.37	10.8771
172.39	10.8765
172.40	10.8760
172.42	10.8755
172.43	10.8752
172.45	10.8749
172.47	10.8747
172.48	10.8746
172.50	10.8745
172.52	10.8743
172.53	10.8741
172.55	10.8738
172.57	10.8738
172.58	10.8738
172.60	10.8737
172.62	10.8736
172.63	10.8736
172.65	10.8737
172.67	10.8740
172.68	10.8742
172.70	10.8744
172.72	10.8747
172.74	10.8747
172.75	10.8751
172.77	10.8754
172.78	10.8757
172.80	10.8759
172.82	10.8764
172.84	10.8767
172.85	10.8774
172.86	10.8781
172.88	10.8784
172.90	10.8790
172.91	10.8796
172.93	10.8799
172.95	10.8805
172.97	10.8809
172.99	10.8813
173.00	10.8819
173.02	10.8825
173.03	10.8832
173.05	10.8839
173.07	10.8847
173.08	10.8854
173.10	10.8862
173.11	10.8868
173.13	10.8873
173.15	10.8881
173.17	10.8888
173.18	10.8896
173.20	10.8903
173.22	10.8911
173.23	10.8919
173.25	10.8928
173.27	10.8937
173.28	10.8947
173.30	10.8956
173.32	10.8966
173.33	10.8974
173.35	10.8984
173.37	10.8994
173.38	10.9002
173.40	10.9012
173.42	10.9022
173.43	10.9029
173.45	10.9039
173.47	10.9051
173.48	10.9059
173.50	10.9072
173.52	10.9082
173.53	10.9090
173.55	10.9101
173.56	10.9110
173.58	10.9120
173.60	10.9129
173.61	10.9141
173.63	10.9150
173.65	10.9162
173.66	10.9174
173.68	10.9184
173.70	10.9193
173.72	10.9206
173.73	10.9218
173.75	10.9228
173.77	10.9242
173.78	10.9253
173.80	10.9263
173.82	10.9275
173.83	10.9287
173.85	10.9299
173.87	10.9312
173.88	10.9325
173.90	10.9337
173.91	10.9349
173.93	10.9361
173.95	10.9371
173.97	10.9385
173.98	10.9395
174.00	10.9407
174.02	10.9419
174.03	10.9431
174.05	10.9443
174.06	10.9457
174.08	10.9469
174.10	10.9482
174.12	10.9495
174.13	10.9508
174.15	10.9519
174.16	10.9531
174.18	10.9542
174.19	10.9554
174.21	10.9566
174.23	10.9578
174.25	10.9591
174.26	10.9605
174.28	10.9614
174.30	10.9628
174.31	10.9639
174.33	10.9652
174.35	10.9665
174.37	10.9678
174.38	10.9689
174.40	10.9700
174.42	10.9715
174.43	10.9727
174.44	10.9738
174.46	10.9751
174.47	10.9764
174.50	10.9778
174.51	10.9789
174.53	10.9801
174.55	10.9815
174.56	10.9828
174.58	10.9840
174.60	10.9853
174.61	10.9867
174.63	10.9879
174.65	10.9892
174.66	10.9907
174.68	10.9919
174.70	10.9932
174.72	10.9943
174.74	10.9952
174.75	10.9964
174.77	10.9977
174.78	10.9989
174.80	11.0002
174.81	11.0015
174.83	11.0027
174.85	11.0043
174.86	11.0054
174.88	11.0067
174.90	11.0081
174.91	11.0093
174.93	11.0106
174.94	11.0121
174.96	11.0132
174.98	11.0144
175.00	11.0158
175.01	11.0170
175.03	11.0185
175.05	11.0198
175.07	11.0210
175.08	11.0222
175.10	11.0237
175.11	11.0249
175.13	11.0263
175.15	11.0278
175.16	11.0287
175.18	11.0302
175.20	11.0313
175.22	11.0325
175.23	11.0339
175.25	11.0353
175.27	11.0368
175.28	11.0381
175.30	11.0394
175.31	11.0406
175.33	11.0419
175.35	11.0432
175.36	11.0444
175.38	11.0455
175.40	11.0466
175.42	11.0481
175.43	11.0493
175.44	11.0507
175.46	11.0518
175.48	11.0530
175.50	11.0544
175.52	11.0556
175.53	11.0568
175.55	11.0580
175.57	11.0592
175.58	11.0603
175.60	11.0617
175.62	11.0630
175.63	11.0641
175.65	11.0655
175.66	11.0668
175.68	11.0682
175.69	11.0696
175.71	11.0708
175.73	11.0723
175.75	11.0737
175.76	11.0748
175.78	11.0762
175.80	11.0774
175.81	11.0787
175.83	11.0801
175.85	11.0817
175.86	11.0828
175.88	11.0842
175.90	11.0855
175.91	11.0868
175.93	11.0882
175.95	11.0895
175.97	11.0908
175.98	11.0922
176.00	11.0937
176.01	11.0950
176.03	11.0964
176.05	11.0977
176.06	11.0990
176.08	11.1005
176.09	11.1019
176.11	11.1030
176.13	11.1042
176.15	11.1056
176.16	11.1068
176.18	11.1081
176.19	11.1094
176.21	11.1107
176.22	11.1121
176.25	11.1133
176.26	11.1146
176.28	11.1159
176.30	11.1174
176.32	11.1186
176.33	11.1196
176.35	11.1208
176.37	11.1218
176.38	11.1229
176.40	11.1239
176.41	11.1250
176.43	11.1263
176.44	11.1276
176.46	11.1287
176.48	11.1300
176.50	11.1314
176.51	11.1326
176.53	11.1337
176.55	11.1349
176.56	11.1362
176.58	11.1374
176.60	11.1387
176.61	11.1398
176.63	11.1412
176.65	11.1424
176.66	11.1435
176.68	11.1448
176.69	11.1460
176.72	11.1473
176.73	11.1485
176.75	11.1497
176.76	11.1508
176.78	11.1520
176.80	11.1531
176.81	11.1544
176.83	11.1556
176.85	11.1569
176.86	11.1582
176.88	11.1594
176.90	11.1607
176.91	11.1620
176.93	11.1632
176.94	11.1645
176.96	11.1656
176.98	11.1668
176.99	11.1679
177.01	11.1692
177.03	11.1706
177.05	11.1720
177.06	11.1733
177.08	11.1744
177.09	11.1758
177.11	11.1769
177.13	11.1782
177.14	11.1795
177.16	11.1806
177.18	11.1820
177.19	11.1833
177.21	11.1847
177.23	11.1860
177.24	11.1873
177.26	11.1883
177.28	11.1897
177.30	11.1911
177.31	11.1924
177.33	11.1936
177.35	11.1950
177.36	11.1964
177.38	11.1976
177.40	11.1989
177.41	11.2003
177.43	11.2015
177.44	11.2031
177.46	11.2044
177.47	11.2059
177.49	11.2071
177.51	11.2084
177.53	11.2098
177.55	11.2112
177.56	11.2125
177.58	11.2139
177.59	11.2155
177.61	11.2168
177.63	11.2182
177.65	11.2196
177.66	11.2207
177.68	11.2222
177.69	11.2234
177.71	11.2247
177.73	11.2261
177.74	11.2275
177.76	11.2288
177.78	11.2301
177.79	11.2314
177.81	11.2330
177.83	11.2343
177.84	11.2356
177.86	11.2369
177.88	11.2380
177.89	11.2394
177.91	11.2406
177.93	11.2418
177.94	11.2431
177.96	11.2444
177.97	11.2456
178.00	11.2468
178.01	11.2481
178.03	11.2493
178.05	11.2506
178.06	11.2520
178.08	11.2533
178.09	11.2549
178.11	11.2563
178.13	11.2577
178.15	11.2591
178.16	11.2602
178.18	11.2616
178.19	11.2629
178.21	11.2640
178.22	11.2656
178.25	11.2668
178.25	11.2681
178.27	11.2694
178.30	11.2707
178.31	11.2716
178.33	11.2726
178.34	11.2739
178.36	11.2752
178.38	11.2765
178.39	11.2780
178.41	11.2791
178.43	11.2804
178.44	11.2818
178.46	11.2832
178.48	11.2845
178.49	11.2858
178.51	11.2869
178.53	11.2881
178.54	11.2894
178.56	11.2906
178.58	11.2918
178.60	11.2933
178.61	11.2946
178.63	11.2959
178.64	11.2973
178.66	11.2986
178.68	11.2998
178.69	11.3011
178.71	11.3022
178.72	11.3035
178.74	11.3046
178.76	11.3060
178.78	11.3074
178.79	11.3087
178.81	11.3100
178.83	11.3115
178.85	11.3127
178.86	11.3141
178.88	11.3152
178.89	11.3165
178.91	11.3178
178.93	11.3191
178.94	11.3205
178.96	11.3218
178.98	11.3230
178.99	11.3243
179.01	11.3256
179.03	11.3271
179.05	11.3284
179.06	11.3297
179.08	11.3311
179.09	11.3323
179.11	11.3337
179.13	11.3352
179.14	11.3365
179.16	11.3375
179.18	11.3391
179.19	11.3405
179.21	11.3419
179.22	11.3433
179.24	11.3446
179.26	11.3460
179.28	11.3474
179.30	11.3487
179.31	11.3498
179.33	11.3511
179.34	11.3522
179.36	11.3534
179.38	11.3547
179.39	11.3559
179.41	11.3572
179.43	11.3586
179.44	11.3598
179.46	11.3612
179.47	11.3625
179.50	11.3637
179.51	11.3650
179.53	11.3662
179.55	11.3675
179.56	11.3687
179.58	11.3699
179.60	11.3713
179.61	11.3728
179.63	11.3740
179.64	11.3755
179.66	11.3766
179.68	11.3780
179.69	11.3792
179.71	11.3804
179.72	11.3817
179.74	11.3829
179.76	11.3840
179.77	11.3855
179.79	11.3872
179.81	11.3881
179.83	11.3895
179.84	11.3908
179.86	11.3922
179.88	11.3938
179.89	11.3950
179.91	11.3962
179.93	11.3976
179.94	11.3987
179.95	11.4001
179.97	11.4015
179.99	11.4030
180.00	11.4045
180.02	11.4061
180.04	11.4075
180.05	11.4088
180.07	11.4102
180.08	11.4115
180.10	11.4128
180.13	11.4142
180.14	11.4156
180.16	11.4169
180.18	11.4182
180.19	11.4194
180.20	11.4206
180.22	11.4221
180.24	11.4233
180.26	11.4248
180.28	11.4262
180.30	11.4273
180.31	11.4287
180.33	11.4300
180.34	11.4311
180.35	11.4324
180.37	11.4336
180.39	11.4351
180.41	11.4365
180.43	11.4379
180.44	11.4391
180.45	11.4405
180.47	11.4417
180.49	11.4429
180.51	11.4444
180.53	11.4457
180.54	11.4470
180.56	11.4482
180.58	11.4496
180.59	11.4509
180.60	11.4523
180.63	11.4536
180.64	11.4548
180.66	11.4560
180.68	11.4574
180.69	11.4586
180.71	11.4599
180.72	11.4610
180.74	11.4623
180.75	11.4635
180.78	11.4651
180.79	11.4664
180.80	11.4680
180.83	11.4694
180.84	11.4708
180.85	11.4720
180.87	11.4734
180.89	11.4748
180.90	11.4762
180.92	11.4773
180.94	11.4785
180.96	11.4799
180.97	11.4812
180.99	11.4822
181.00	11.4838
181.02	11.4852
181.04	11.4863
181.06	11.4877
181.08	11.4893
181.09	11.4904
181.10	11.4916
181.13	11.4930
181.14	11.4943
181.15	11.4955
181.17	11.4968
181.19	11.4980
181.20	11.4994
181.22	11.5007
181.23	11.5021
181.25	11.5032
181.27	11.5046
181.29	11.5057
181.30	11.5070
181.32	11.5084
181.33	11.5095
181.35	11.5107
181.37	11.5120
181.39	11.5132
181.40	11.5145
181.42	11.5159
181.43	11.5172
181.45	11.5187
181.47	11.5200
181.49	11.5214
181.50	11.5228
181.52	11.5240
181.54	11.5254
181.55	11.5269
181.58	11.5282
181.59	11.5297
181.60	11.5311
181.63	11.5324
181.64	11.5339
181.65	11.5354
181.67	11.5367
181.69	11.5379
181.70	11.5392
181.72	11.5406
181.74	11.5419
181.76	11.5432
181.77	11.5448
181.79	11.5462
181.81	11.5476
181.82	11.5491
181.84	11.5503
181.85	11.5515
181.87	11.5532
181.89	11.5546
181.90	11.5560
181.92	11.5575
181.94	11.5587
181.95	11.5601
181.97	11.5618
181.99	11.5630
182.00	11.5644
182.02	11.5658
182.03	11.5671
182.05	11.5684
182.07	11.5698
182.09	11.5712
182.10	11.5725
182.13	11.5739
182.13	11.5751
182.15	11.5763
182.17	11.5778
182.18	11.5791
182.20	11.5805
182.22	11.5818
182.24	11.5831
182.25	11.5846
182.27	11.5858
182.29	11.5870
182.30	11.5884
182.32	11.5897
182.34	11.5907
182.35	11.5919
182.37	11.5934
182.39	11.5946
182.40	11.5958
182.42	11.5972
182.43	11.5984
182.45	11.5998
182.47	11.6013
182.49	11.6021
182.50	11.6034
182.52	11.6047
182.53	11.6059
182.55	11.6073
182.57	11.6086
182.58	11.6099
182.60	11.6115
182.62	11.6127
182.64	11.6139
182.65	11.6154
182.67	11.6165
182.69	11.6179
182.70	11.6192
182.72	11.6205
182.73	11.6218
182.75	11.6231
182.77	11.6246
182.78	11.6259
182.80	11.6274
182.82	11.6289
182.83	11.6301
182.85	11.6315
182.87	11.6329
182.89	11.6342
182.90	11.6356
182.92	11.6370
182.94	11.6383
182.95	11.6397
182.97	11.6411
182.98	11.6426
183.00	11.6442
183.02	11.6454
183.03	11.6468
183.05	11.6482
183.06	11.6496
183.08	11.6509
183.10	11.6523
183.12	11.6535
183.13	11.6550
183.15	11.6563
183.17	11.6576
183.18	11.6590
183.19	11.6604
183.22	11.6618
183.23	11.6632
183.25	11.6645
183.27	11.6657
183.29	11.6669
183.30	11.6683
183.32	11.6695
183.33	11.6707
183.35	11.6720
183.37	11.6733
183.38	11.6746
183.40	11.6759
183.42	11.6773
183.43	11.6787
183.45	11.6801
183.47	11.6813
183.48	11.6827
183.50	11.6840
183.51	11.6853
183.53	11.6867
183.55	11.6883
183.56	11.6894
183.58	11.6906
183.60	11.6919
183.62	11.6930
183.63	11.6943
183.65	11.6958
183.66	11.6971
183.68	11.6983
183.70	11.6994
183.71	11.7008
183.73	11.7020
183.75	11.7033
183.76	11.7043
183.78	11.7056
183.80	11.7072
183.81	11.7085
183.83	11.7098
183.85	11.7111
183.87	11.7125
183.88	11.7137
183.90	11.7150
183.92	11.7164
183.93	11.7177
183.95	11.7194
183.97	11.7208
183.98	11.7220
184.00	11.7235
184.02	11.7246
184.03	11.7259
184.05	11.7273
184.06	11.7284
184.08	11.7296
184.10	11.7312
184.12	11.7323
184.13	11.7336
184.15	11.7350
184.17	11.7364
184.18	11.7378
184.19	11.7391
184.21	11.7406
184.23	11.7418
184.25	11.7431
184.27	11.7445
184.28	11.7459
184.30	11.7471
184.32	11.7485
184.33	11.7499
184.35	11.7513
184.37	11.7526
184.38	11.7538
184.40	11.7553
184.41	11.7565
184.43	11.7580
184.45	11.7593
184.47	11.7607
184.48	11.7620
184.50	11.7633
184.52	11.7646
184.53	11.7659
184.55	11.7673
184.57	11.7686
184.58	11.7700
184.60	11.7716
184.62	11.7730
184.63	11.7742
184.65	11.7755
184.67	11.7769
184.68	11.7780
184.70	11.7793
184.72	11.7807
184.73	11.7819
184.75	11.7833
184.77	11.7847
184.78	11.7862
184.80	11.7876
184.81	11.7889
184.83	11.7902
184.85	11.7916
184.87	11.7931
184.88	11.7941
184.90	11.7956
184.92	11.7971
184.93	11.7985
184.95	11.7999
184.97	11.8012
184.98	11.8027
185.00	11.8042
185.02	11.8055
185.03	11.8067
185.05	11.8083
185.07	11.8095
185.08	11.8108
185.10	11.8121
185.12	11.8133
185.13	11.8148
185.15	11.8164
185.17	11.8176
185.18	11.8191
185.20	11.8203
185.22	11.8217
185.23	11.8232
185.25	11.8247
185.27	11.8259
185.28	11.8272
185.30	11.8286
185.32	11.8298
185.33	11.8314
185.35	11.8327
185.36	11.8339
185.38	11.8353
185.40	11.8368
185.42	11.8381
185.43	11.8394
185.44	11.8408
185.47	11.8422
185.48	11.8435
185.50	11.8448
185.52	11.8461
185.53	11.8475
185.55	11.8488
185.57	11.8501
185.58	11.8517
185.60	11.8530
185.62	11.8543
185.64	11.8556
185.65	11.8571
185.67	11.8583
185.68	11.8595
185.70	11.8610
185.72	11.8621
185.73	11.8634
185.75	11.8650
185.77	11.8662
185.78	11.8676
185.80	11.8691
185.82	11.8703
185.83	11.8717
185.85	11.8731
185.87	11.8744
185.88	11.8755
185.90	11.8770
185.92	11.8786
185.93	11.8798
185.95	11.8814
185.97	11.8830
185.98	11.8845
186.00	11.8857
186.02	11.8873
186.03	11.8888
186.05	11.8902
186.06	11.8914
186.08	11.8928
186.10	11.8943
186.12	11.8957
186.13	11.8971
186.15	11.8985
186.16	11.8999
186.18	11.9014
186.20	11.9027
186.22	11.9039
186.23	11.9054
186.25	11.9068
186.27	11.9080
186.28	11.9093
186.30	11.9107
186.32	11.9119
186.33	11.9132
186.35	11.9147
186.37	11.9160
186.38	11.9174
186.40	11.9186
186.42	11.9197
186.43	11.9212
186.45	11.9227
186.47	11.9239
186.48	11.9252
186.50	11.9266
186.52	11.9278
186.53	11.9294
186.55	11.9309
186.57	11.9323
186.58	11.9338
186.60	11.9350
186.62	11.9365
186.63	11.9380
186.65	11.9394
186.67	11.9407
186.68	11.9421
186.70	11.9434
186.72	11.9448
186.73	11.9464
186.75	11.9478
186.77	11.9494
186.78	11.9508
186.80	11.9524
186.82	11.9539
186.83	11.9552
186.85	11.9569
186.87	11.9583
186.88	11.9596
186.90	11.9612
186.92	11.9626
186.93	11.9639
186.95	11.9655
186.97	11.9671
186.99	11.9685
187.00	11.9699
187.02	11.9711
187.03	11.9727
187.05	11.9739
187.07	11.9752
187.09	11.9767
187.10	11.9779
187.12	11.9794
187.13	11.9809
187.15	11.9826
187.17	11.9837
187.18	11.9850
187.20	11.9862
187.22	11.9875
187.23	11.9888
187.25	11.9902
187.26	11.9914
187.28	11.9925
187.30	11.9939
187.32	11.9954
187.33	11.9965
187.35	11.9978
187.37	11.9990
187.38	12.0004
187.40	12.0017
187.42	12.0027
187.43	12.0040
187.45	12.0055
187.46	12.0070
187.48	12.0081
187.50	12.0093
187.52	12.0109
187.53	12.0121
187.55	12.0136
187.57	12.0149
187.58	12.0159
187.60	12.0172
187.62	12.0186
187.63	12.0199
187.65	12.0212
187.67	12.0225
187.68	12.0237
187.70	12.0250
187.72	12.0263
187.73	12.0276
187.75	12.0290
187.77	12.0301
187.78	12.0315
187.80	12.0330
187.82	12.0341
187.83	12.0356
187.85	12.0370
187.87	12.0383
187.89	12.0395
187.90	12.0411
187.92	12.0425
187.93	12.0438
187.95	12.0453
187.97	12.0467
187.99	12.0482
188.00	12.0495
188.01	12.0507
188.03	12.0520
188.05	12.0532
188.07	12.0549
188.09	12.0561
188.10	12.0575
188.12	12.0587
188.13	12.0603
188.15	12.0618
188.17	12.0631
188.18	12.0643
188.20	12.0657
188.22	12.0671
188.23	12.0684
188.25	12.0698
188.26	12.0712
188.28	12.0726
188.30	12.0739
188.32	12.0755
188.33	12.0770
188.35	12.0784
188.36	12.0797
188.38	12.0811
188.40	12.0825
188.42	12.0839
188.43	12.0853
188.44	12.0868
188.47	12.0880
188.48	12.0892
188.50	12.0908
188.51	12.0921
188.53	12.0934
188.55	12.0948
188.57	12.0961
188.58	12.0975
188.60	12.0989
188.62	12.1002
188.63	12.1015
188.65	12.1030
188.67	12.1042
188.69	12.1056
188.70	12.1071
188.72	12.1084
188.74	12.1100
188.75	12.1114
188.77	12.1128
188.78	12.1141
188.80	12.1156
188.82	12.1170
188.83	12.1185
188.85	12.1199
188.87	12.1214
188.88	12.1230
188.90	12.1243
188.92	12.1256
188.93	12.1270
188.94	12.1283
188.97	12.1296
188.98	12.1311
189.00	12.1325
189.02	12.1338
189.03	12.1350
189.05	12.1364
189.06	12.1377
189.08	12.1391
189.10	12.1404
189.12	12.1418
189.14	12.1431
189.15	12.1445
189.17	12.1457
189.18	12.1471
189.19	12.1484
189.21	12.1497
189.23	12.1512
189.25	12.1528
189.26	12.1542
189.28	12.1559
189.30	12.1575
189.31	12.1588
189.33	12.1602
189.35	12.1619
189.37	12.1634
189.38	12.1649
189.40	12.1663
189.42	12.1678
189.43	12.1692
189.45	12.1708
189.47	12.1720
189.49	12.1738
189.50	12.1752
189.52	12.1767
189.53	12.1783
189.55	12.1797
189.57	12.1813
189.58	12.1828
189.60	12.1842
189.62	12.1855
189.63	12.1868
189.65	12.1884
189.66	12.1898
189.68	12.1913
189.70	12.1926
189.72	12.1941
189.73	12.1957
189.75	12.1972
189.76	12.1985
189.78	12.2000
189.80	12.2014
189.82	12.2028
189.83	12.2039
189.85	12.2054
189.87	12.2069
189.88	12.2083
189.90	12.2097
189.92	12.2112
189.93	12.2126
189.95	12.2138
189.97	12.2150
189.98	12.2163
190.00	12.2176
190.01	12.2190
190.03	12.2203
190.05	12.2217
190.07	12.2233
190.08	12.2247
190.10	12.2261
190.12	12.2274
190.13	12.2288
190.15	12.2302
190.17	12.2315
190.18	12.2328
190.20	12.2342
190.22	12.2356
190.23	12.2368
190.25	12.2382
190.27	12.2398
190.28	12.2413
190.30	12.2426
190.32	12.2440
190.33	12.2455
190.35	12.2466
190.36	12.2479
190.38	12.2493
190.40	12.2506
190.42	12.2520
190.43	12.2533
190.44	12.2548
190.46	12.2565
190.48	12.2578
190.50	12.2593
190.52	12.2607
190.53	12.2622
190.55	12.2636
190.56	12.2648
190.58	12.2663
190.60	12.2677
190.61	12.2690
190.63	12.2704
190.65	12.2718
190.66	12.2732
190.68	12.2746
190.70	12.2762
190.71	12.2777
190.73	12.2792
190.75	12.2807
190.77	12.2821
190.78	12.2837
190.80	12.2849
190.82	12.2864
190.83	12.2880
190.85	12.2895
190.87	12.2910
190.89	12.2925
190.90	12.2939
190.92	12.2954
190.93	12.2968
190.95	12.2984
190.97	12.2999
190.99	12.3013
191.00	12.3025
191.02	12.3039
191.03	12.3054
191.05	12.3066
191.07	12.3083
191.08	12.3097
191.10	12.3111
191.11	12.3124
191.13	12.3138
191.15	12.3153
191.16	12.3166
191.18	12.3179
191.19	12.3193
191.22	12.3206
191.23	12.3220
191.25	12.3233
191.26	12.3249
191.28	12.3260
191.30	12.3274
191.31	12.3288
191.33	12.3302
191.35	12.3316
191.36	12.3327
191.38	12.3341
191.40	12.3354
191.42	12.3367
191.43	12.3382
191.45	12.3396
191.46	12.3410
191.48	12.3425
191.50	12.3438
191.51	12.3453
191.53	12.3467
191.55	12.3479
191.56	12.3492
191.58	12.3507
191.60	12.3518
191.62	12.3533
191.63	12.3548
191.65	12.3562
191.66	12.3575
191.68	12.3592
191.69	12.3602
191.71	12.3615
191.73	12.3633
191.75	12.3649
191.76	12.3661
191.78	12.3675
191.80	12.3687
191.81	12.3703
191.83	12.3717
191.85	12.3728
191.87	12.3741
191.88	12.3759
191.90	12.3772
191.91	12.3784
191.93	12.3802
191.94	12.3813
191.96	12.3827
191.98	12.3841
192.00	12.3853
192.02	12.3868
192.03	12.3883
192.05	12.3895
192.06	12.3911
192.08	12.3926
192.10	12.3941
192.11	12.3956
192.13	12.3972
192.15	12.3988
192.16	12.4002
192.18	12.4015
192.19	12.4030
192.22	12.4044
192.23	12.4059
192.25	12.4074
192.26	12.4087
192.28	12.4104
192.30	12.4117
192.31	12.4132
192.33	12.4149
192.35	12.4162
192.37	12.4176
192.38	12.4187
192.40	12.4200
192.41	12.4216
192.43	12.4232
192.45	12.4247
192.47	12.4260
192.48	12.4276
192.50	12.4287
192.51	12.4302
192.53	12.4316
192.55	12.4331
192.56	12.4344
192.58	12.4359
192.59	12.4372
192.61	12.4387
192.63	12.4404
192.65	12.4418
192.67	12.4432
192.68	12.4445
192.69	12.4460
192.71	12.4475
192.73	12.4490
192.75	12.4503
192.77	12.4517
192.78	12.4531
192.80	12.4545
192.81	12.4558
192.83	12.4571
192.85	12.4585
192.86	12.4599
192.88	12.4612
192.89	12.4628
192.91	12.4643
192.93	12.4658
192.94	12.4671
192.96	12.4686
192.98	12.4700
193.00	12.4713
193.01	12.4728
193.03	12.4743
193.05	12.4757
193.06	12.4771
193.08	12.4786
193.10	12.4799
193.11	12.4813
193.13	12.4826
193.15	12.4839
193.16	12.4854
193.18	12.4867
193.19	12.4881
193.21	12.4897
193.23	12.4912
193.25	12.4925
193.26	12.4940
193.28	12.4955
193.29	12.4970
193.31	12.4985
193.33	12.4999
193.35	12.5013
193.36	12.5027
193.38	12.5042
193.40	12.5055
193.42	12.5070
193.43	12.5085
193.44	12.5099
193.46	12.5114
193.48	12.5127
193.50	12.5142
193.51	12.5159
193.53	12.5175
193.55	12.5188
193.56	12.5202
193.58	12.5215
193.60	12.5229
193.61	12.5244
193.63	12.5256
193.65	12.5270
193.66	12.5285
193.68	12.5300
193.69	12.5313
193.71	12.5325
193.72	12.5340
193.75	12.5354
193.76	12.5368
193.78	12.5381
193.80	12.5395
193.81	12.5410
193.83	12.5425
193.85	12.5437
193.86	12.5452
193.88	12.5467
193.90	12.5481
193.92	12.5495
193.93	12.5510
193.94	12.5522
193.97	12.5536
193.98	12.5549
194.00	12.5561
194.01	12.5575
194.03	12.5588
194.05	12.5603
194.06	12.5617
194.08	12.5632
194.10	12.5644
194.11	12.5659
194.13	12.5672
194.15	12.5686
194.16	12.5698
194.18	12.5711
194.19	12.5725
194.21	12.5739
194.23	12.5755
194.24	12.5769
194.26	12.5784
194.28	12.5799
194.29	12.5812
194.31	12.5823
194.33	12.5839
194.35	12.5852
194.36	12.5867
194.38	12.5881
194.40	12.5895
194.41	12.5910
194.43	12.5925
194.44	12.5939
194.46	12.5954
194.48	12.5968
194.50	12.5982
194.51	12.5996
194.53	12.6011
194.55	12.6023
194.56	12.6037
194.58	12.6053
194.60	12.6067
194.61	12.6082
194.63	12.6097
194.65	12.6112
194.66	12.6127
194.68	12.6143
194.69	12.6157
194.71	12.6172
194.73	12.6187
194.75	12.6200
194.76	12.6217
194.78	12.6231
194.80	12.6246
194.82	12.6260
194.83	12.6276
194.84	12.6288
194.86	12.6302
194.88	12.6318
194.90	12.6331
194.91	12.6345
194.93	12.6359
194.94	12.6372
194.96	12.6388
194.98	12.6402
195.00	12.6415
195.01	12.6430
195.03	12.6441
195.05	12.6455
195.06	12.6469
195.08	12.6484
195.10	12.6498
195.11	12.6512
195.13	12.6527
195.15	12.6540
195.16	12.6555
195.18	12.6570
195.19	12.6586
195.21	12.6599
195.23	12.6614
195.25	12.6632
195.27	12.6647
195.28	12.6663
195.30	12.6676
195.31	12.6689
195.33	12.6701
195.34	12.6716
195.36	12.6728
195.38	12.6742
195.40	12.6757
195.41	12.6774
195.43	12.6789
195.44	12.6804
195.47	12.6819
195.48	12.6832
195.50	12.6847
195.51	12.6860
195.53	12.6871
195.55	12.6884
195.56	12.6897
195.58	12.6909
195.60	12.6924
195.61	12.6940
195.63	12.6954
195.65	12.6970
195.66	12.6983
195.68	12.6997
195.69	12.7010
195.72	12.7024
195.73	12.7036
195.75	12.7051
195.77	12.7064
195.78	12.7078
195.80	12.7092
195.82	12.7105
195.83	12.7118
195.85	12.7131
195.87	12.7144
195.88	12.7159
195.90	12.7172
195.91	12.7185
195.93	12.7199
195.94	12.7211
195.96	12.7225
195.98	12.7240
196.00	12.7255
196.01	12.7270
196.03	12.7283
196.05	12.7298
196.07	12.7311
196.08	12.7325
196.10	12.7341
196.11	12.7354
196.13	12.7368
196.15	12.7383
196.16	12.7397
196.18	12.7412
196.19	12.7427
196.21	12.7441
196.23	12.7455
196.25	12.7468
196.26	12.7481
196.28	12.7495
196.30	12.7510
196.31	12.7524
196.33	12.7539
196.35	12.7555
196.36	12.7570
196.38	12.7585
196.40	12.7598
196.42	12.7613
196.43	12.7626
196.45	12.7642
196.46	12.7657
196.48	12.7670
196.50	12.7685
196.51	12.7699
196.53	12.7713
196.55	12.7726
196.56	12.7742
196.58	12.7757
196.60	12.7774
196.62	12.7788
196.63	12.7803
196.65	12.7819
196.66	12.7834
196.68	12.7848
196.69	12.7861
196.71	12.7875
196.73	12.7888
196.75	12.7905
196.77	12.7919
196.78	12.7934
196.80	12.7948
196.81	12.7964
196.83	12.7979
196.85	12.7994
196.86	12.8010
196.88	12.8021
196.90	12.8036
196.91	12.8050
196.93	12.8064
196.94	12.8079
196.96	12.8094
196.98	12.8107
197.00	12.8122
197.01	12.8136
197.03	12.8150
197.05	12.8161
197.06	12.8176
197.08	12.8188
197.10	12.8202
197.11	12.8215
197.13	12.8226
197.15	12.8242
197.16	12.8256
197.18	12.8270
197.20	12.8285
197.22	12.8297
197.23	12.8311
197.25	12.8326
197.26	12.8341
197.28	12.8355
197.30	12.8369
197.31	12.8383
197.33	12.8397
197.35	12.8411
197.36	12.8426
197.38	12.8443
197.39	12.8456
197.41	12.8473
197.43	12.8487
197.44	12.8502
197.46	12.8517
197.48	12.8533
197.50	12.8546
197.52	12.8562
197.53	12.8576
197.55	12.8593
197.56	12.8607
197.58	12.8619
197.60	12.8636
197.61	12.8650
197.63	12.8664
197.65	12.8679
197.66	12.8694
197.68	12.8707
197.69	12.8721
197.71	12.8738
197.72	12.8752
197.75	12.8769
197.76	12.8784
197.78	12.8799
197.80	12.8813
197.81	12.8830
197.83	12.8843
197.85	12.8858
197.86	12.8873
197.88	12.8887
197.90	12.8902
197.91	12.8919
197.93	12.8933
197.94	12.8948
197.96	12.8964
197.98	12.8975
198.00	12.8991
198.02	12.9005
198.03	12.9016
198.05	12.9030
198.06	12.9047
198.08	12.9060
198.10	12.9076
198.11	12.9093
198.13	12.9108
198.15	12.9123
198.16	12.9138
198.18	12.9151
198.19	12.9165
198.22	12.9179
198.23	12.9193
198.25	12.9208
198.26	12.9221
198.28	12.9235
198.30	12.9250
198.31	12.9265
198.33	12.9279
198.35	12.9294
198.36	12.9309
198.38	12.9326
198.40	12.9342
198.41	12.9355
198.43	12.9371
198.44	12.9388
198.47	12.9400
198.48	12.9416
198.50	12.9430
198.51	12.9444
198.53	12.9459
198.55	12.9473
198.56	12.9488
198.58	12.9503
198.60	12.9518
198.61	12.9533
198.63	12.9547
198.65	12.9561
198.66	12.9577
198.68	12.9589
198.69	12.9602
198.71	12.9615
198.73	12.9628
198.75	12.9643
198.76	12.9659
198.78	12.9671
198.80	12.9684
198.82	12.9697
198.83	12.9711
198.85	12.9726
198.86	12.9737
198.88	12.9750
198.90	12.9764
198.91	12.9777
198.93	12.9791
198.95	12.9805
198.97	12.9820
198.98	12.9832
199.00	12.9847
199.01	12.9859
199.03	12.9872
199.05	12.9887
199.06	12.9900
199.08	12.9914
199.10	12.9928
199.11	12.9945
199.13	12.9961
199.14	12.9977
199.16	12.9991
199.18	13.0006
199.19	13.0020
199.21	13.0034
199.23	13.0047
199.25	13.0063
199.26	13.0078
199.28	13.0092
199.30	13.0107
199.31	13.0123
199.33	13.0139
199.35	13.0155
199.37	13.0167
199.38	13.0182
199.40	13.0197
199.41	13.0211
199.43	13.0227
199.45	13.0242
199.46	13.0256
199.48	13.0271
199.50	13.0286
199.51	13.0302
199.53	13.0315
199.55	13.0331
199.56	13.0347
199.58	13.0360
199.60	13.0375
199.61	13.0391
199.63	13.0403
199.65	13.0417
199.66	13.0431
199.68	13.0444
199.69	13.0459
199.71	13.0474
199.73	13.0488
199.75	13.0503
199.76	13.0517
199.78	13.0530
199.80	13.0545
199.81	13.0560
199.83	13.0574
199.85	13.0588
199.86	13.0601
199.88	13.0616
