Filename:	D:\TGAdata\„∆√ŒœÈ\20150506\chunPP.pdid

Temperature (°„C)	Heat Flow Endo Up (mW)
10.13	-6.4984
10.14	-6.3741
10.14	-6.2734
10.13	-6.1928
10.13	-6.1259
10.13	-6.0675
10.13	-6.0120
10.13	-5.9559
10.14	-5.8973
10.14	-5.8346
10.14	-5.7676
10.15	-5.6960
10.16	-5.6203
10.17	-5.5412
10.18	-5.4591
10.19	-5.3748
10.20	-5.2891
10.20	-5.2030
10.22	-5.1168
10.23	-5.0309
10.24	-4.9465
10.25	-4.8638
10.26	-4.7832
10.28	-4.7049
10.29	-4.6290
10.30	-4.5557
10.32	-4.4850
10.33	-4.4170
10.35	-4.3510
10.36	-4.2871
10.38	-4.2252
10.39	-4.1650
10.40	-4.1064
10.42	-4.0493
10.43	-3.9934
10.45	-3.9390
10.47	-3.8852
10.48	-3.8316
10.50	-3.7789
10.51	-3.7265
10.53	-3.6742
10.55	-3.6221
10.56	-3.5696
10.58	-3.5170
10.59	-3.4643
10.61	-3.4110
10.62	-3.3571
10.64	-3.3029
10.65	-3.2479
10.67	-3.1918
10.68	-3.1354
10.70	-3.0783
10.72	-3.0203
10.73	-2.9619
10.75	-2.9027
10.77	-2.8427
10.79	-2.7819
10.80	-2.7205
10.82	-2.6585
10.84	-2.5959
10.85	-2.5329
10.86	-2.4695
10.88	-2.4056
10.90	-2.3414
10.91	-2.2767
10.93	-2.2117
10.95	-2.1462
10.96	-2.0806
10.98	-2.0152
11.00	-1.9492
11.01	-1.8833
11.03	-1.8167
11.05	-1.7504
11.06	-1.6841
11.08	-1.6181
11.09	-1.5521
11.11	-1.4860
11.13	-1.4205
11.14	-1.3553
11.15	-1.2903
11.18	-1.2259
11.19	-1.1619
11.20	-1.0982
11.22	-1.0349
11.24	-0.9720
11.26	-0.9092
11.27	-0.8471
11.29	-0.7855
11.30	-0.7243
11.33	-0.6637
11.34	-0.6037
11.35	-0.5443
11.37	-0.4857
11.39	-0.4271
11.40	-0.3694
11.42	-0.3123
11.44	-0.2555
11.45	-0.1996
11.47	-0.1442
11.49	-0.0895
11.50	-0.0356
11.52	0.0178
11.53	0.0707
11.55	0.1227
11.57	0.1742
11.58	0.2251
11.60	0.2750
11.62	0.3244
11.63	0.3730
11.65	0.4211
11.67	0.4684
11.68	0.5153
11.70	0.5615
11.72	0.6071
11.73	0.6522
11.75	0.6967
11.77	0.7404
11.78	0.7835
11.80	0.8263
11.82	0.8681
11.83	0.9093
11.85	0.9497
11.87	0.9897
11.88	1.0292
11.90	1.0678
11.91	1.1058
11.93	1.1431
11.95	1.1799
11.97	1.2161
11.99	1.2518
12.00	1.2869
12.02	1.3215
12.03	1.3557
12.05	1.3892
12.06	1.4221
12.08	1.4547
12.10	1.4866
12.12	1.5181
12.13	1.5489
12.15	1.5795
12.17	1.6093
12.18	1.6387
12.20	1.6680
12.21	1.6965
12.23	1.7245
12.25	1.7521
12.26	1.7791
12.28	1.8058
12.30	1.8318
12.32	1.8577
12.33	1.8830
12.35	1.9078
12.37	1.9324
12.39	1.9563
12.40	1.9800
12.42	2.0034
12.43	2.0266
12.45	2.0491
12.47	2.0714
12.48	2.0934
12.50	2.1150
12.52	2.1361
12.53	2.1567
12.55	2.1768
12.57	2.1966
12.59	2.2161
12.60	2.2354
12.62	2.2544
12.63	2.2731
12.65	2.2911
12.67	2.3090
12.69	2.3268
12.70	2.3441
12.71	2.3611
12.73	2.3778
12.75	2.3940
12.76	2.4100
12.78	2.4258
12.81	2.4413
12.82	2.4566
12.83	2.4717
12.85	2.4864
12.86	2.5010
12.88	2.5153
12.90	2.5293
12.92	2.5430
12.93	2.5563
12.95	2.5694
12.97	2.5824
12.98	2.5952
13.00	2.6077
13.02	2.6201
13.03	2.6322
13.05	2.6440
13.07	2.6556
13.08	2.6674
13.10	2.6790
13.12	2.6903
13.13	2.7015
13.15	2.7123
13.17	2.7231
13.18	2.7335
13.20	2.7435
13.22	2.7537
13.23	2.7634
13.25	2.7728
13.27	2.7822
13.28	2.7915
13.30	2.8005
13.32	2.8093
13.33	2.8181
13.35	2.8268
13.37	2.8353
13.39	2.8436
13.40	2.8519
13.42	2.8599
13.43	2.8678
13.45	2.8756
13.47	2.8833
13.49	2.8909
13.50	2.8985
13.52	2.9058
13.53	2.9132
13.55	2.9203
13.57	2.9273
13.58	2.9344
13.60	2.9410
13.62	2.9476
13.63	2.9541
13.65	2.9608
13.67	2.9671
13.68	2.9731
13.70	2.9790
13.72	2.9851
13.73	2.9908
13.75	2.9965
13.77	3.0023
13.78	3.0080
13.80	3.0136
13.82	3.0192
13.83	3.0247
13.85	3.0298
13.86	3.0350
13.88	3.0400
13.90	3.0449
13.91	3.0497
13.93	3.0543
13.95	3.0589
13.97	3.0635
13.99	3.0679
14.00	3.0722
14.02	3.0765
14.03	3.0807
14.05	3.0847
14.07	3.0886
14.08	3.0926
14.10	3.0966
14.11	3.1003
14.13	3.1042
14.15	3.1081
14.17	3.1118
14.18	3.1157
14.20	3.1192
14.22	3.1228
14.23	3.1262
14.25	3.1296
14.27	3.1329
14.29	3.1363
14.30	3.1395
14.31	3.1428
14.33	3.1459
14.35	3.1491
14.37	3.1522
14.39	3.1552
14.40	3.1580
14.42	3.1610
14.43	3.1641
14.45	3.1671
14.47	3.1703
14.48	3.1732
14.50	3.1762
14.52	3.1791
14.54	3.1819
14.55	3.1843
14.57	3.1869
14.58	3.1894
14.61	3.1918
14.62	3.1943
14.64	3.1966
14.65	3.1990
14.67	3.2014
14.68	3.2038
14.70	3.2059
14.72	3.2081
14.73	3.2103
14.75	3.2124
14.78	3.2144
14.79	3.2165
14.80	3.2187
14.82	3.2209
14.83	3.2230
14.85	3.2250
14.87	3.2271
14.88	3.2293
14.90	3.2314
14.92	3.2334
14.94	3.2352
14.95	3.2370
14.97	3.2388
14.98	3.2407
15.00	3.2426
15.02	3.2444
15.03	3.2459
15.05	3.2476
15.07	3.2491
15.09	3.2507
15.10	3.2522
15.12	3.2537
15.14	3.2554
15.15	3.2571
15.17	3.2588
15.19	3.2605
15.20	3.2620
15.22	3.2633
15.23	3.2647
15.25	3.2663
15.28	3.2677
15.29	3.2691
15.30	3.2704
15.32	3.2716
15.34	3.2730
15.35	3.2742
15.37	3.2753
15.39	3.2765
15.40	3.2776
15.42	3.2787
15.43	3.2800
15.45	3.2810
15.47	3.2825
15.49	3.2838
15.50	3.2849
15.52	3.2861
15.54	3.2874
15.55	3.2885
15.56	3.2897
15.58	3.2910
15.60	3.2919
15.62	3.2932
15.64	3.2942
15.65	3.2952
15.67	3.2962
15.68	3.2972
15.70	3.2983
15.72	3.2992
15.73	3.3002
15.75	3.3011
15.77	3.3019
15.78	3.3029
15.80	3.3040
15.82	3.3053
15.83	3.3063
15.85	3.3076
15.87	3.3087
15.89	3.3098
15.90	3.3107
15.92	3.3117
15.94	3.3127
15.95	3.3137
15.97	3.3146
15.98	3.3156
16.00	3.3165
16.02	3.3174
16.04	3.3180
16.05	3.3187
16.07	3.3194
16.09	3.3201
16.11	3.3207
16.12	3.3215
16.14	3.3223
16.15	3.3232
16.17	3.3241
16.19	3.3247
16.20	3.3255
16.22	3.3264
16.23	3.3273
16.25	3.3280
16.27	3.3289
16.29	3.3298
16.30	3.3305
16.32	3.3314
16.34	3.3322
16.36	3.3331
16.37	3.3339
16.38	3.3346
16.40	3.3352
16.42	3.3358
16.43	3.3365
16.45	3.3372
16.47	3.3380
16.49	3.3389
16.50	3.3398
16.52	3.3407
16.53	3.3416
16.55	3.3422
16.57	3.3429
16.58	3.3436
16.60	3.3444
16.63	3.3449
16.64	3.3456
16.66	3.3463
16.68	3.3470
16.69	3.3475
16.70	3.3479
16.72	3.3485
16.74	3.3491
16.75	3.3496
16.77	3.3500
16.79	3.3505
16.80	3.3512
16.82	3.3519
16.84	3.3524
16.85	3.3530
16.87	3.3537
16.89	3.3542
16.90	3.3547
16.92	3.3553
16.94	3.3559
16.95	3.3565
16.97	3.3572
16.98	3.3577
17.00	3.3585
17.02	3.3592
17.04	3.3602
17.05	3.3608
17.07	3.3617
17.09	3.3625
17.10	3.3630
17.12	3.3639
17.13	3.3645
17.15	3.3652
17.17	3.3658
17.19	3.3664
17.20	3.3670
17.22	3.3676
17.24	3.3680
17.25	3.3684
17.27	3.3690
17.28	3.3697
17.30	3.3702
17.32	3.3706
17.34	3.3712
17.35	3.3718
17.37	3.3724
17.38	3.3730
17.40	3.3738
17.42	3.3747
17.43	3.3754
17.45	3.3762
17.47	3.3771
17.48	3.3780
17.50	3.3788
17.52	3.3796
17.54	3.3802
17.56	3.3808
17.57	3.3814
17.59	3.3821
17.60	3.3826
17.62	3.3832
17.63	3.3837
17.65	3.3843
17.67	3.3851
17.69	3.3858
17.70	3.3866
17.72	3.3873
17.74	3.3881
17.75	3.3889
17.77	3.3899
17.79	3.3909
17.80	3.3919
17.82	3.3927
17.84	3.3933
17.85	3.3940
17.87	3.3947
17.88	3.3953
17.90	3.3958
17.92	3.3962
17.94	3.3967
17.95	3.3973
17.97	3.3978
17.99	3.3984
18.00	3.3989
18.02	3.3994
18.03	3.3997
18.05	3.4003
18.07	3.4006
18.08	3.4009
18.10	3.4013
18.12	3.4018
18.14	3.4023
18.15	3.4030
18.17	3.4037
18.19	3.4043
18.20	3.4049
18.23	3.4054
18.24	3.4060
18.25	3.4063
18.27	3.4067
18.29	3.4071
18.30	3.4075
18.32	3.4079
18.33	3.4080
18.34	3.4082
18.37	3.4085
18.38	3.4088
18.40	3.4090
18.42	3.4093
18.43	3.4096
18.45	3.4100
18.47	3.4104
18.49	3.4108
18.51	3.4115
18.52	3.4120
18.53	3.4127
18.55	3.4131
18.57	3.4138
18.59	3.4141
18.60	3.4145
18.62	3.4150
18.63	3.4154
18.65	3.4157
18.66	3.4159
18.68	3.4161
18.70	3.4164
18.72	3.4166
18.74	3.4170
18.75	3.4172
18.77	3.4173
18.78	3.4174
18.80	3.4178
18.81	3.4181
18.83	3.4184
18.85	3.4189
18.87	3.4194
18.88	3.4200
18.90	3.4204
18.92	3.4208
18.94	3.4212
18.95	3.4215
18.97	3.4218
18.99	3.4221
19.00	3.4224
19.02	3.4228
19.03	3.4231
19.05	3.4234
19.07	3.4236
19.08	3.4239
19.10	3.4243
19.12	3.4248
19.13	3.4250
19.14	3.4255
19.16	3.4259
19.18	3.4264
19.20	3.4268
19.22	3.4272
19.24	3.4278
19.25	3.4285
19.26	3.4289
19.28	3.4294
19.30	3.4301
19.32	3.4305
19.33	3.4310
19.35	3.4315
19.37	3.4320
19.39	3.4323
19.40	3.4327
19.42	3.4332
19.43	3.4335
19.45	3.4337
19.47	3.4340
19.48	3.4344
19.50	3.4349
19.52	3.4352
19.53	3.4356
19.55	3.4358
19.57	3.4361
19.58	3.4366
19.60	3.4372
19.62	3.4377
19.63	3.4382
19.65	3.4387
19.67	3.4393
19.68	3.4399
19.70	3.4401
19.72	3.4405
19.74	3.4408
19.75	3.4413
19.76	3.4417
19.78	3.4420
19.80	3.4424
19.81	3.4428
19.83	3.4430
19.85	3.4433
19.87	3.4437
19.88	3.4440
19.90	3.4443
19.91	3.4446
19.93	3.4448
19.95	3.4454
19.97	3.4460
19.98	3.4467
20.00	3.4472
20.02	3.4476
20.03	3.4481
20.05	3.4487
20.07	3.4491
20.08	3.4495
20.09	3.4500
20.11	3.4505
20.13	3.4509
20.15	3.4514
20.16	3.4518
20.18	3.4521
20.20	3.4523
20.21	3.4526
20.23	3.4528
20.25	3.4528
20.26	3.4534
20.28	3.4537
20.30	3.4540
20.32	3.4546
20.33	3.4552
20.34	3.4557
20.36	3.4562
20.38	3.4564
20.40	3.4567
20.41	3.4571
20.43	3.4573
20.45	3.4575
20.46	3.4578
20.48	3.4580
20.50	3.4584
20.51	3.4588
20.53	3.4590
20.55	3.4592
20.56	3.4596
20.58	3.4598
20.59	3.4600
20.61	3.4602
20.63	3.4605
20.65	3.4608
20.67	3.4613
20.68	3.4617
20.70	3.4624
20.71	3.4631
20.73	3.4635
20.75	3.4640
20.76	3.4645
20.78	3.4649
20.80	3.4653
20.81	3.4658
20.83	3.4661
20.84	3.4665
20.86	3.4670
20.88	3.4673
20.90	3.4678
20.91	3.4683
20.93	3.4687
20.95	3.4688
20.96	3.4693
20.98	3.4697
20.99	3.4700
21.01	3.4705
21.03	3.4710
21.05	3.4716
21.06	3.4723
21.07	3.4730
21.09	3.4737
21.11	3.4745
21.13	3.4750
21.15	3.4755
21.16	3.4759
21.18	3.4769
21.19	3.4776
21.21	3.4775
21.23	3.4778
21.25	3.4781
21.27	3.4784
21.28	3.4786
21.30	3.4789
21.31	3.4792
21.33	3.4798
21.34	3.4800
21.36	3.4807
21.38	3.4811
21.39	3.4814
21.41	3.4821
21.43	3.4828
21.44	3.4834
21.46	3.4841
21.48	3.4845
21.49	3.4849
21.51	3.4853
21.52	3.4856
21.54	3.4859
21.56	3.4862
21.58	3.4863
21.59	3.4866
21.61	3.4868
21.63	3.4869
21.65	3.4873
21.67	3.4874
21.68	3.4876
21.70	3.4879
21.71	3.4883
21.73	3.4886
21.74	3.4890
21.76	3.4895
21.78	3.4899
21.79	3.4904
21.81	3.4911
21.82	3.4916
21.84	3.4922
21.86	3.4927
21.88	3.4931
21.90	3.4935
21.91	3.4940
21.93	3.4941
21.95	3.4947
21.96	3.4953
21.98	3.4955
22.00	3.4958
22.01	3.4964
22.03	3.4967
22.04	3.4969
22.06	3.4974
22.07	3.4976
22.09	3.4981
22.10	3.4986
22.12	3.4991
22.14	3.4996
22.16	3.5005
22.18	3.5012
22.19	3.5016
22.21	3.5023
22.23	3.5028
22.25	3.5033
22.26	3.5039
22.28	3.5043
22.30	3.5048
22.31	3.5053
22.32	3.5056
22.34	3.5059
22.36	3.5064
22.38	3.5066
22.39	3.5068
22.41	3.5074
22.42	3.5076
22.44	3.5080
22.46	3.5082
22.47	3.5087
22.49	3.5091
22.51	3.5095
22.53	3.5103
22.55	3.5111
22.56	3.5115
22.57	3.5122
22.59	3.5129
22.61	3.5133
22.62	3.5138
22.64	3.5145
22.66	3.5145
22.67	3.5149
22.69	3.5154
22.71	3.5157
22.73	3.5162
22.74	3.5166
22.76	3.5169
22.77	3.5176
22.79	3.5180
22.81	3.5183
22.82	3.5190
22.84	3.5195
22.86	3.5199
22.88	3.5206
22.89	3.5211
22.91	3.5217
22.93	3.5224
22.94	3.5230
22.95	3.5235
22.98	3.5239
22.99	3.5244
23.01	3.5247
23.03	3.5251
23.04	3.5254
23.06	3.5258
23.07	3.5262
23.09	3.5263
23.10	3.5267
23.12	3.5270
23.14	3.5275
23.16	3.5279
23.18	3.5281
23.19	3.5284
23.20	3.5288
23.23	3.5291
23.24	3.5296
23.26	3.5302
23.28	3.5308
23.29	3.5315
23.31	3.5320
23.32	3.5325
23.34	3.5330
23.36	3.5334
23.38	3.5339
23.39	3.5342
23.41	3.5348
23.43	3.5351
23.44	3.5354
23.45	3.5358
23.47	3.5362
23.49	3.5366
23.50	3.5370
23.52	3.5375
23.54	3.5380
23.56	3.5381
23.57	3.5387
23.59	3.5393
23.60	3.5398
23.62	3.5408
23.64	3.5413
23.65	3.5418
23.67	3.5425
23.69	3.5431
23.70	3.5436
23.72	3.5440
23.73	3.5442
23.75	3.5447
23.77	3.5449
23.78	3.5454
23.80	3.5456
23.82	3.5459
23.84	3.5464
23.85	3.5466
23.87	3.5470
23.89	3.5473
23.90	3.5475
23.92	3.5480
23.94	3.5485
23.95	3.5492
23.97	3.5498
23.98	3.5505
24.00	3.5511
24.02	3.5517
24.04	3.5524
24.05	3.5529
24.07	3.5533
24.08	3.5540
24.09	3.5544
24.11	3.5548
24.13	3.5554
24.15	3.5556
24.17	3.5562
24.19	3.5566
24.20	3.5570
24.22	3.5574
24.24	3.5578
24.25	3.5582
24.27	3.5584
24.29	3.5586
24.30	3.5590
24.32	3.5595
24.33	3.5601
24.35	3.5609
24.37	3.5615
24.38	3.5620
24.40	3.5625
24.42	3.5631
24.43	3.5636
24.45	3.5639
24.47	3.5645
24.48	3.5648
24.50	3.5652
24.52	3.5655
24.54	3.5657
24.55	3.5657
24.57	3.5661
24.58	3.5663
24.59	3.5667
24.61	3.5669
24.63	3.5672
24.65	3.5675
24.66	3.5678
24.68	3.5682
24.70	3.5687
24.72	3.5692
24.73	3.5696
24.75	3.5701
24.77	3.5704
24.78	3.5709
24.80	3.5715
24.82	3.5717
24.83	3.5723
24.85	3.5725
24.87	3.5729
24.88	3.5733
24.90	3.5733
24.92	3.5737
24.93	3.5741
24.95	3.5744
24.97	3.5747
24.98	3.5748
25.00	3.5749
25.01	3.5750
25.03	3.5752
25.05	3.5756
25.06	3.5759
25.08	3.5764
25.09	3.5769
25.11	3.5773
25.13	3.5778
25.15	3.5783
25.17	3.5789
25.19	3.5791
25.20	3.5796
25.22	3.5800
25.23	3.5803
25.25	3.5806
25.26	3.5810
25.28	3.5813
25.30	3.5818
25.31	3.5821
25.33	3.5826
25.34	3.5828
25.37	3.5832
25.38	3.5835
25.40	3.5840
25.42	3.5845
25.44	3.5853
25.45	3.5859
25.47	3.5866
25.48	3.5872
25.50	3.5880
25.52	3.5887
25.53	3.5894
25.55	3.5899
25.57	3.5903
25.58	3.5908
25.60	3.5913
25.61	3.5917
25.63	3.5919
25.65	3.5923
25.67	3.5926
25.68	3.5931
25.70	3.5935
25.71	3.5940
25.73	3.5945
25.74	3.5950
25.76	3.5958
25.78	3.5965
25.80	3.5972
25.81	3.5978
25.83	3.5985
25.85	3.5990
25.86	3.5997
25.88	3.6000
25.90	3.6004
25.91	3.6009
25.93	3.6017
25.95	3.6015
25.96	3.6022
25.98	3.6024
26.00	3.6029
26.02	3.6033
26.03	3.6035
26.05	3.6039
26.07	3.6042
26.08	3.6046
26.09	3.6049
26.11	3.6056
26.13	3.6063
26.15	3.6072
26.16	3.6077
26.18	3.6085
26.20	3.6091
26.21	3.6097
26.23	3.6102
26.25	3.6107
26.26	3.6111
26.28	3.6115
26.29	3.6120
26.31	3.6125
26.33	3.6128
26.34	3.6131
26.36	3.6136
26.38	3.6140
26.39	3.6142
26.41	3.6147
26.43	3.6149
26.45	3.6153
26.46	3.6157
26.48	3.6162
26.49	3.6171
26.51	3.6178
26.53	3.6184
26.54	3.6190
26.56	3.6197
26.57	3.6205
26.59	3.6211
26.61	3.6217
26.63	3.6222
26.65	3.6226
26.66	3.6231
26.68	3.6235
26.70	3.6238
26.71	3.6243
26.73	3.6246
26.75	3.6249
26.76	3.6254
26.78	3.6259
26.80	3.6262
26.81	3.6267
26.82	3.6271
26.84	3.6279
26.86	3.6286
26.88	3.6291
26.90	3.6297
26.91	3.6303
26.93	3.6308
26.95	3.6312
26.96	3.6316
26.98	3.6320
26.99	3.6322
27.01	3.6325
27.03	3.6328
27.05	3.6330
27.07	3.6332
27.07	3.6335
27.09	3.6339
27.11	3.6342
27.13	3.6346
27.14	3.6350
27.16	3.6354
27.18	3.6358
27.20	3.6361
27.21	3.6365
27.23	3.6369
27.25	3.6375
27.26	3.6380
27.28	3.6384
27.30	3.6389
27.31	3.6394
27.32	3.6397
27.34	3.6398
27.36	3.6403
27.38	3.6404
27.40	3.6407
27.41	3.6411
27.43	3.6414
27.44	3.6421
27.46	3.6424
27.48	3.6428
27.50	3.6430
27.51	3.6434
27.53	3.6433
27.55	3.6437
27.56	3.6441
27.58	3.6447
27.59	3.6452
27.61	3.6457
27.63	3.6462
27.65	3.6468
27.67	3.6473
27.68	3.6477
27.70	3.6482
27.72	3.6486
27.73	3.6490
27.75	3.6495
27.76	3.6500
27.78	3.6503
27.80	3.6510
27.81	3.6516
27.83	3.6519
27.84	3.6523
27.86	3.6527
27.88	3.6532
27.90	3.6537
27.91	3.6541
27.93	3.6548
27.95	3.6554
27.96	3.6561
27.98	3.6566
28.00	3.6574
28.01	3.6581
28.03	3.6586
28.05	3.6589
28.07	3.6594
28.08	3.6598
28.09	3.6604
28.11	3.6611
28.13	3.6614
28.14	3.6620
28.16	3.6625
28.18	3.6630
28.20	3.6636
28.21	3.6640
28.23	3.6644
28.25	3.6647
28.26	3.6651
28.28	3.6656
28.30	3.6664
28.31	3.6670
28.33	3.6677
28.34	3.6683
28.36	3.6690
28.38	3.6696
28.40	3.6701
28.41	3.6707
28.43	3.6711
28.45	3.6719
28.46	3.6724
28.48	3.6731
28.49	3.6737
28.51	3.6742
28.53	3.6747
28.55	3.6754
28.56	3.6759
28.58	3.6763
28.59	3.6766
28.61	3.6771
28.63	3.6777
28.65	3.6784
28.66	3.6791
28.68	3.6798
28.70	3.6803
28.71	3.6808
28.73	3.6814
28.74	3.6818
28.76	3.6825
28.78	3.6828
28.80	3.6833
28.81	3.6839
28.83	3.6843
28.84	3.6847
28.86	3.6850
28.88	3.6854
28.89	3.6856
28.91	3.6859
28.93	3.6863
28.95	3.6867
28.96	3.6873
28.98	3.6877
29.00	3.6882
29.01	3.6891
29.03	3.6899
29.04	3.6907
29.06	3.6916
29.08	3.6921
29.09	3.6928
29.11	3.6932
29.13	3.6937
29.15	3.6941
29.16	3.6945
29.18	3.6951
29.20	3.6955
29.21	3.6959
29.23	3.6961
29.25	3.6964
29.26	3.6968
29.28	3.6974
29.29	3.6978
29.31	3.6985
29.32	3.6988
29.34	3.6993
29.36	3.6999
29.38	3.7005
29.40	3.7009
29.41	3.7016
29.42	3.7021
29.44	3.7027
29.46	3.7033
29.48	3.7038
29.49	3.7043
29.51	3.7045
29.53	3.7049
29.54	3.7053
29.56	3.7058
29.57	3.7063
29.59	3.7066
29.61	3.7070
29.63	3.7074
29.64	3.7078
29.66	3.7082
29.68	3.7085
29.70	3.7089
29.71	3.7091
29.73	3.7096
29.75	3.7103
29.76	3.7109
29.78	3.7113
29.80	3.7119
29.81	3.7125
29.82	3.7128
29.84	3.7133
29.86	3.7138
29.88	3.7142
29.90	3.7147
29.91	3.7152
29.93	3.7157
29.94	3.7160
29.96	3.7164
29.98	3.7168
29.99	3.7172
30.01	3.7176
30.03	3.7181
30.04	3.7184
30.06	3.7184
30.08	3.7191
30.09	3.7197
30.11	3.7202
30.13	3.7209
30.14	3.7216
30.16	3.7223
30.18	3.7229
30.19	3.7235
30.22	3.7240
30.23	3.7243
30.25	3.7248
30.27	3.7252
30.28	3.7256
30.30	3.7259
30.31	3.7264
30.33	3.7268
30.34	3.7273
30.36	3.7275
30.37	3.7278
30.39	3.7282
30.41	3.7286
30.43	3.7290
30.44	3.7295
30.45	3.7301
30.47	3.7308
30.49	3.7312
30.51	3.7317
30.53	3.7322
30.55	3.7329
30.56	3.7334
30.57	3.7339
30.59	3.7344
30.61	3.7347
30.63	3.7350
30.65	3.7352
30.66	3.7356
30.68	3.7360
30.69	3.7363
30.71	3.7368
30.73	3.7369
30.74	3.7373
30.76	3.7377
30.78	3.7381
30.80	3.7388
30.81	3.7393
30.82	3.7400
30.85	3.7407
30.86	3.7413
30.88	3.7416
30.89	3.7421
30.91	3.7426
30.93	3.7430
30.95	3.7436
30.96	3.7440
30.98	3.7442
31.00	3.7446
31.01	3.7452
31.03	3.7455
31.04	3.7461
31.06	3.7463
31.08	3.7467
31.09	3.7472
31.10	3.7473
31.13	3.7479
31.14	3.7486
31.16	3.7493
31.18	3.7499
31.19	3.7505
31.21	3.7511
31.23	3.7517
31.24	3.7523
31.26	3.7528
31.28	3.7533
31.30	3.7538
31.31	3.7544
31.32	3.7548
31.34	3.7554
31.36	3.7560
31.38	3.7564
31.39	3.7568
31.41	3.7570
31.43	3.7573
31.45	3.7578
31.46	3.7582
31.48	3.7587
31.50	3.7591
31.51	3.7600
31.53	3.7608
31.54	3.7615
31.56	3.7621
31.57	3.7629
31.59	3.7633
31.61	3.7640
31.62	3.7645
31.64	3.7649
31.65	3.7652
31.68	3.7656
31.69	3.7661
31.70	3.7663
31.73	3.7665
31.74	3.7669
31.76	3.7673
31.78	3.7677
31.79	3.7682
31.81	3.7685
31.82	3.7690
31.84	3.7696
31.85	3.7701
31.87	3.7704
31.89	3.7709
31.91	3.7715
31.93	3.7719
31.94	3.7725
31.96	3.7729
31.98	3.7733
32.00	3.7741
32.01	3.7745
32.02	3.7750
32.04	3.7755
32.06	3.7760
32.08	3.7762
32.09	3.7765
32.11	3.7771
32.13	3.7774
32.14	3.7780
32.16	3.7783
32.17	3.7787
32.19	3.7791
32.21	3.7796
32.23	3.7802
32.24	3.7810
32.26	3.7815
32.27	3.7821
32.29	3.7825
32.30	3.7834
32.32	3.7837
32.34	3.7842
32.36	3.7848
32.37	3.7852
32.39	3.7856
32.40	3.7860
32.42	3.7862
32.44	3.7864
32.45	3.7870
32.48	3.7872
32.49	3.7876
32.50	3.7878
32.52	3.7880
32.54	3.7884
32.55	3.7890
32.57	3.7896
32.58	3.7902
32.61	3.7905
32.62	3.7911
32.64	3.7917
32.65	3.7923
32.67	3.7929
32.69	3.7932
32.70	3.7936
32.73	3.7937
32.74	3.7941
32.75	3.7944
32.77	3.7946
32.79	3.7952
32.80	3.7955
32.83	3.7960
32.84	3.7964
32.86	3.7966
32.88	3.7970
32.89	3.7976
32.91	3.7978
32.92	3.7984
32.94	3.7990
32.95	3.7997
32.97	3.8006
32.99	3.8012
33.00	3.8018
33.02	3.8022
33.04	3.8027
33.06	3.8030
33.07	3.8035
33.09	3.8038
33.10	3.8043
33.12	3.8049
33.14	3.8052
33.16	3.8056
33.17	3.8060
33.19	3.8066
33.20	3.8069
33.22	3.8072
33.24	3.8075
33.25	3.8077
33.27	3.8085
33.28	3.8091
33.30	3.8097
33.32	3.8103
33.34	3.8110
33.36	3.8116
33.38	3.8120
33.39	3.8123
33.41	3.8128
33.42	3.8133
33.44	3.8138
33.45	3.8142
33.47	3.8147
33.49	3.8152
33.50	3.8155
33.52	3.8159
33.54	3.8163
33.55	3.8165
33.57	3.8170
33.59	3.8175
33.60	3.8180
33.62	3.8186
33.64	3.8193
33.65	3.8199
33.67	3.8206
33.69	3.8211
33.70	3.8215
33.72	3.8219
33.74	3.8223
33.75	3.8227
33.77	3.8233
33.79	3.8240
33.80	3.8244
33.82	3.8250
33.84	3.8254
33.85	3.8260
33.87	3.8264
33.88	3.8268
33.90	3.8271
33.92	3.8274
33.94	3.8280
33.95	3.8284
33.97	3.8288
33.99	3.8295
34.00	3.8300
34.02	3.8307
34.04	3.8312
34.05	3.8316
34.07	3.8320
34.09	3.8326
34.10	3.8330
34.12	3.8335
34.14	3.8340
34.15	3.8343
34.17	3.8348
34.18	3.8352
34.20	3.8356
34.22	3.8361
34.23	3.8365
34.25	3.8370
34.27	3.8373
34.28	3.8379
34.30	3.8385
34.32	3.8391
34.33	3.8397
34.35	3.8405
34.37	3.8413
34.38	3.8421
34.40	3.8428
34.42	3.8436
34.44	3.8445
34.45	3.8449
34.47	3.8455
34.48	3.8462
34.50	3.8467
34.52	3.8470
34.54	3.8473
34.56	3.8477
34.58	3.8480
34.59	3.8482
34.60	3.8486
34.62	3.8487
34.64	3.8491
34.65	3.8495
34.67	3.8497
34.69	3.8503
34.70	3.8507
34.72	3.8510
34.74	3.8516
34.75	3.8520
34.76	3.8523
34.78	3.8529
34.80	3.8534
34.82	3.8538
34.83	3.8542
34.85	3.8546
34.87	3.8550
34.89	3.8555
34.90	3.8557
34.92	3.8563
34.93	3.8566
34.95	3.8570
34.97	3.8577
34.99	3.8580
35.00	3.8582
35.02	3.8585
35.03	3.8591
35.05	3.8596
35.07	3.8601
35.08	3.8609
35.09	3.8614
35.12	3.8621
35.13	3.8625
35.15	3.8631
35.17	3.8636
35.18	3.8641
35.20	3.8644
35.22	3.8649
35.24	3.8654
35.25	3.8659
35.27	3.8664
35.28	3.8671
35.30	3.8679
35.32	3.8684
35.33	3.8689
35.35	3.8694
35.37	3.8699
35.38	3.8704
35.40	3.8710
35.42	3.8718
35.43	3.8723
35.45	3.8729
35.47	3.8735
35.48	3.8744
35.50	3.8749
35.52	3.8753
35.53	3.8759
35.55	3.8763
35.57	3.8768
35.58	3.8770
35.60	3.8773
35.62	3.8777
35.63	3.8783
35.65	3.8785
35.67	3.8791
35.68	3.8794
35.70	3.8797
35.71	3.8802
35.73	3.8807
35.74	3.8812
35.76	3.8819
35.78	3.8827
35.80	3.8835
35.82	3.8840
35.83	3.8846
35.85	3.8851
35.87	3.8857
35.89	3.8864
35.90	3.8868
35.92	3.8874
35.93	3.8877
35.95	3.8884
35.97	3.8888
35.98	3.8893
35.99	3.8900
36.02	3.8906
36.03	3.8911
36.05	3.8915
36.07	3.8923
36.08	3.8929
36.10	3.8933
36.12	3.8941
36.13	3.8947
36.15	3.8953
36.17	3.8961
36.18	3.8968
36.20	3.8973
36.22	3.8978
36.23	3.8982
36.25	3.8986
36.27	3.8991
36.28	3.8996
36.30	3.9000
36.32	3.9003
36.33	3.9008
36.35	3.9011
36.37	3.9015
36.38	3.9018
36.40	3.9020
36.42	3.9022
36.43	3.9025
36.45	3.9031
36.46	3.9038
36.48	3.9043
36.50	3.9046
36.52	3.9054
36.53	3.9057
36.55	3.9062
36.56	3.9067
36.58	3.9071
36.60	3.9074
36.61	3.9080
36.63	3.9084
36.65	3.9088
36.67	3.9092
36.68	3.9099
36.70	3.9103
36.72	3.9106
36.73	3.9112
36.74	3.9117
36.77	3.9121
36.78	3.9124
36.80	3.9129
36.82	3.9138
36.83	3.9143
36.84	3.9150
36.86	3.9156
36.88	3.9162
36.90	3.9167
36.92	3.9173
36.94	3.9176
36.95	3.9181
36.97	3.9185
36.99	3.9190
37.00	3.9195
37.02	3.9199
37.03	3.9204
37.05	3.9207
37.07	3.9212
37.08	3.9218
37.09	3.9222
37.11	3.9228
37.13	3.9234
37.15	3.9240
37.17	3.9245
37.18	3.9252
37.20	3.9258
37.22	3.9263
37.23	3.9269
37.24	3.9275
37.26	3.9280
37.28	3.9286
37.30	3.9292
37.32	3.9297
37.33	3.9302
37.34	3.9308
37.36	3.9312
37.38	3.9316
37.40	3.9321
37.41	3.9324
37.43	3.9330
37.45	3.9336
37.46	3.9343
37.48	3.9347
37.50	3.9352
37.53	3.9357
37.54	3.9363
37.55	3.9369
37.56	3.9375
37.58	3.9381
37.59	3.9387
37.61	3.9391
37.63	3.9397
37.65	3.9402
37.67	3.9407
37.68	3.9410
37.70	3.9415
37.72	3.9418
37.73	3.9421
37.75	3.9425
37.77	3.9428
37.78	3.9433
37.80	3.9439
37.81	3.9444
37.83	3.9451
37.85	3.9456
37.87	3.9462
37.88	3.9469
37.90	3.9474
37.92	3.9479
37.93	3.9484
37.95	3.9490
37.97	3.9496
37.98	3.9501
37.99	3.9505
38.02	3.9509
38.03	3.9513
38.04	3.9515
38.06	3.9521
38.08	3.9525
38.10	3.9528
38.12	3.9534
38.13	3.9537
38.15	3.9543
38.16	3.9548
38.18	3.9554
38.20	3.9559
38.22	3.9566
38.24	3.9571
38.25	3.9577
38.27	3.9583
38.28	3.9589
38.30	3.9595
38.31	3.9601
38.33	3.9606
38.34	3.9610
38.36	3.9614
38.38	3.9618
38.40	3.9624
38.42	3.9630
38.43	3.9636
38.45	3.9639
38.47	3.9645
38.48	3.9649
38.50	3.9653
38.52	3.9658
38.53	3.9660
38.55	3.9665
38.57	3.9669
38.58	3.9676
38.59	3.9681
38.62	3.9689
38.63	3.9693
38.65	3.9698
38.66	3.9703
38.68	3.9707
38.70	3.9711
38.71	3.9716
38.73	3.9719
38.74	3.9722
38.75	3.9726
38.77	3.9729
38.80	3.9733
38.81	3.9737
38.83	3.9740
38.84	3.9743
38.86	3.9747
38.88	3.9749
38.90	3.9754
38.91	3.9761
38.93	3.9767
38.94	3.9771
38.96	3.9776
38.98	3.9779
38.99	3.9784
39.01	3.9791
39.03	3.9796
39.05	3.9801
39.07	3.9804
39.08	3.9811
39.09	3.9815
39.11	3.9820
39.13	3.9828
39.15	3.9832
39.16	3.9839
39.18	3.9846
39.19	3.9851
39.21	3.9855
39.23	3.9859
39.24	3.9865
39.27	3.9873
39.28	3.9879
39.30	3.9887
39.31	3.9895
39.33	3.9901
39.34	3.9906
39.36	3.9912
39.38	3.9920
39.40	3.9924
39.41	3.9931
39.43	3.9935
39.45	3.9942
39.46	3.9948
39.48	3.9951
39.50	3.9954
39.52	3.9959
39.53	3.9964
39.55	3.9968
39.57	3.9973
39.58	3.9977
39.59	3.9981
39.62	3.9989
39.63	3.9995
39.65	4.0001
39.66	4.0006
39.68	4.0011
39.70	4.0016
39.72	4.0022
39.73	4.0025
39.74	4.0030
39.76	4.0036
39.78	4.0039
39.80	4.0044
39.81	4.0047
39.83	4.0050
39.85	4.0054
39.87	4.0058
39.88	4.0063
39.90	4.0069
39.91	4.0072
39.93	4.0076
39.95	4.0080
39.96	4.0085
39.98	4.0094
39.99	4.0101
40.01	4.0108
40.03	4.0114
40.04	4.0120
40.06	4.0126
40.08	4.0132
40.09	4.0137
40.11	4.0145
40.13	4.0149
40.15	4.0153
40.16	4.0158
40.18	4.0163
40.19	4.0168
40.22	4.0171
40.23	4.0176
40.24	4.0181
40.26	4.0189
40.27	4.0194
40.30	4.0202
40.31	4.0209
40.33	4.0216
40.34	4.0225
40.36	4.0232
40.38	4.0239
40.40	4.0247
40.41	4.0254
40.43	4.0258
40.45	4.0268
40.46	4.0274
40.48	4.0279
40.49	4.0285
40.51	4.0291
40.53	4.0296
40.54	4.0300
40.56	4.0307
40.58	4.0312
40.59	4.0317
40.61	4.0324
40.63	4.0328
40.65	4.0334
40.66	4.0341
40.68	4.0348
40.70	4.0354
40.71	4.0361
40.73	4.0364
40.74	4.0370
40.76	4.0376
40.78	4.0380
40.80	4.0386
40.81	4.0390
40.83	4.0397
40.84	4.0401
40.86	4.0404
40.88	4.0408
40.90	4.0412
40.91	4.0418
40.93	4.0421
40.95	4.0425
40.96	4.0430
40.98	4.0433
40.99	4.0437
41.01	4.0442
41.03	4.0447
41.04	4.0453
41.06	4.0459
41.08	4.0466
41.09	4.0472
41.11	4.0476
41.13	4.0482
41.15	4.0488
41.16	4.0491
41.18	4.0497
41.19	4.0502
41.21	4.0508
41.23	4.0514
41.24	4.0519
41.26	4.0525
41.27	4.0529
41.29	4.0533
41.31	4.0539
41.33	4.0541
41.34	4.0547
41.36	4.0554
41.38	4.0560
41.39	4.0565
41.41	4.0573
41.43	4.0579
41.45	4.0585
41.46	4.0591
41.48	4.0597
41.49	4.0604
41.51	4.0610
41.52	4.0613
41.54	4.0615
41.56	4.0619
41.58	4.0622
41.59	4.0627
41.61	4.0634
41.63	4.0639
41.64	4.0642
41.66	4.0646
41.68	4.0651
41.69	4.0656
41.71	4.0664
41.73	4.0669
41.74	4.0674
41.76	4.0681
41.77	4.0688
41.79	4.0696
41.81	4.0703
41.83	4.0707
41.84	4.0713
41.86	4.0719
41.88	4.0721
41.90	4.0726
41.91	4.0729
41.93	4.0733
41.95	4.0739
41.96	4.0742
41.98	4.0746
41.99	4.0751
42.01	4.0756
42.02	4.0761
42.04	4.0767
42.06	4.0774
42.08	4.0780
42.09	4.0785
42.11	4.0793
42.13	4.0795
42.15	4.0799
42.16	4.0804
42.18	4.0808
42.20	4.0812
42.21	4.0817
42.23	4.0820
42.24	4.0826
42.26	4.0832
42.28	4.0836
42.29	4.0843
42.31	4.0848
42.33	4.0855
42.34	4.0859
42.36	4.0865
42.38	4.0870
42.39	4.0880
42.41	4.0888
42.43	4.0895
42.44	4.0903
42.46	4.0911
42.48	4.0918
42.49	4.0927
42.51	4.0934
42.52	4.0940
42.54	4.0945
42.56	4.0952
42.58	4.0956
42.59	4.0963
42.61	4.0969
42.63	4.0972
42.64	4.0976
42.65	4.0979
42.68	4.0985
42.69	4.0988
42.71	4.0994
42.73	4.0998
42.74	4.1002
42.76	4.1009
42.77	4.1015
42.79	4.1023
42.80	4.1028
42.82	4.1034
42.84	4.1041
42.85	4.1044
42.87	4.1050
42.89	4.1056
42.91	4.1061
42.93	4.1067
42.94	4.1073
42.96	4.1076
42.98	4.1081
42.99	4.1085
43.01	4.1090
43.02	4.1094
43.04	4.1099
43.06	4.1103
43.07	4.1110
43.09	4.1118
43.11	4.1123
43.13	4.1132
43.14	4.1140
43.16	4.1145
43.18	4.1150
43.20	4.1157
43.21	4.1162
43.23	4.1167
43.24	4.1171
43.26	4.1175
43.27	4.1180
43.29	4.1187
43.30	4.1189
43.33	4.1194
43.34	4.1200
43.36	4.1204
43.38	4.1210
43.39	4.1215
43.41	4.1221
43.42	4.1231
43.44	4.1237
43.45	4.1245
43.47	4.1254
43.49	4.1261
43.50	4.1268
43.52	4.1273
43.54	4.1279
43.55	4.1283
43.57	4.1289
43.59	4.1292
43.61	4.1299
43.63	4.1304
43.64	4.1310
43.66	4.1315
43.67	4.1320
43.68	4.1326
43.70	4.1330
43.72	4.1335
43.74	4.1338
43.76	4.1344
43.77	4.1350
43.79	4.1357
43.80	4.1363
43.82	4.1368
43.84	4.1375
43.85	4.1381
43.88	4.1386
43.88	4.1391
43.90	4.1395
43.92	4.1402
43.94	4.1409
43.95	4.1414
43.98	4.1418
43.99	4.1425
44.00	4.1429
44.02	4.1435
44.04	4.1439
44.06	4.1444
44.08	4.1450
44.09	4.1457
44.10	4.1462
44.12	4.1467
44.14	4.1476
44.15	4.1482
44.18	4.1488
44.19	4.1494
44.20	4.1502
44.22	4.1507
44.24	4.1512
44.25	4.1517
44.27	4.1522
44.29	4.1527
44.30	4.1530
44.32	4.1533
44.34	4.1538
44.36	4.1542
44.37	4.1545
44.39	4.1549
44.40	4.1553
44.42	4.1559
44.43	4.1563
44.46	4.1567
44.47	4.1573
44.48	4.1579
44.50	4.1584
44.52	4.1588
44.54	4.1591
44.55	4.1597
44.57	4.1602
44.58	4.1607
44.60	4.1612
44.62	4.1616
44.64	4.1621
44.65	4.1624
44.67	4.1630
44.69	4.1634
44.70	4.1637
44.72	4.1642
44.74	4.1647
44.76	4.1650
44.77	4.1654
44.79	4.1660
44.80	4.1664
44.82	4.1670
44.83	4.1677
44.85	4.1682
44.87	4.1688
44.89	4.1693
44.90	4.1697
44.92	4.1705
44.93	4.1710
44.95	4.1715
44.97	4.1721
44.99	4.1727
45.00	4.1732
45.02	4.1737
45.04	4.1741
45.05	4.1745
45.07	4.1752
45.09	4.1755
45.10	4.1758
45.12	4.1762
45.13	4.1767
45.15	4.1772
45.18	4.1778
45.19	4.1784
45.20	4.1790
45.22	4.1798
45.24	4.1806
45.25	4.1813
45.27	4.1819
45.29	4.1823
45.30	4.1828
45.32	4.1835
45.34	4.1840
45.35	4.1844
45.37	4.1847
45.39	4.1854
45.40	4.1860
45.42	4.1865
45.44	4.1870
45.46	4.1877
45.47	4.1881
45.48	4.1888
45.50	4.1895
45.52	4.1904
45.53	4.1913
45.55	4.1921
45.57	4.1930
45.59	4.1940
45.60	4.1947
45.62	4.1953
45.64	4.1957
45.65	4.1961
45.67	4.1967
45.68	4.1971
45.70	4.1975
45.73	4.1979
45.74	4.1984
45.75	4.1988
45.77	4.1995
45.79	4.2000
45.80	4.2005
45.82	4.2011
45.83	4.2019
45.85	4.2025
45.87	4.2034
45.89	4.2041
45.90	4.2047
45.92	4.2054
45.94	4.2061
45.95	4.2067
45.97	4.2074
45.99	4.2078
46.00	4.2085
46.02	4.2091
46.04	4.2097
46.05	4.2100
46.07	4.2105
46.08	4.2110
46.10	4.2114
46.12	4.2118
46.14	4.2123
46.15	4.2126
46.17	4.2133
46.18	4.2138
46.20	4.2145
46.22	4.2150
46.24	4.2157
46.25	4.2163
46.27	4.2170
46.29	4.2176
46.30	4.2184
46.33	4.2189
46.34	4.2195
46.35	4.2198
46.37	4.2204
46.38	4.2210
46.40	4.2215
46.43	4.2219
46.44	4.2224
46.46	4.2227
46.48	4.2234
46.49	4.2237
46.50	4.2242
46.52	4.2248
46.54	4.2256
46.55	4.2262
46.57	4.2272
46.59	4.2278
46.60	4.2286
46.62	4.2291
46.64	4.2297
46.65	4.2303
46.67	4.2309
46.69	4.2314
46.70	4.2319
46.72	4.2324
46.74	4.2329
46.75	4.2334
46.77	4.2338
46.78	4.2344
46.80	4.2348
46.82	4.2353
46.83	4.2358
46.85	4.2364
46.86	4.2370
46.89	4.2380
46.90	4.2386
46.92	4.2393
46.94	4.2398
46.95	4.2405
46.97	4.2409
46.98	4.2414
47.00	4.2418
47.02	4.2422
47.04	4.2425
47.05	4.2428
47.07	4.2432
47.09	4.2438
47.11	4.2442
47.12	4.2448
47.14	4.2451
47.15	4.2457
47.18	4.2459
47.19	4.2465
47.20	4.2471
47.22	4.2477
47.23	4.2485
47.25	4.2491
47.27	4.2497
47.29	4.2505
47.30	4.2510
47.32	4.2515
47.34	4.2522
47.36	4.2527
47.38	4.2532
47.39	4.2536
47.40	4.2540
47.42	4.2545
47.44	4.2549
47.45	4.2555
47.47	4.2562
47.48	4.2566
47.50	4.2573
47.52	4.2578
47.53	4.2586
47.55	4.2593
47.57	4.2603
47.58	4.2613
47.60	4.2621
47.62	4.2628
47.63	4.2638
47.65	4.2644
47.67	4.2651
47.68	4.2656
47.70	4.2664
47.72	4.2669
47.74	4.2672
47.75	4.2680
47.77	4.2684
47.79	4.2689
47.80	4.2694
47.82	4.2699
47.84	4.2704
47.85	4.2712
47.87	4.2716
47.88	4.2724
47.90	4.2732
47.92	4.2743
47.94	4.2751
47.95	4.2760
47.97	4.2767
47.99	4.2774
48.00	4.2781
48.02	4.2786
48.03	4.2793
48.05	4.2799
48.07	4.2802
48.08	4.2806
48.10	4.2813
48.12	4.2816
48.13	4.2823
48.15	4.2823
48.17	4.2830
48.18	4.2828
48.20	4.2835
48.22	4.2844
48.23	4.2847
48.25	4.2851
48.27	4.2859
48.28	4.2870
48.30	4.2875
48.32	4.2882
48.34	4.2885
48.35	4.2893
48.37	4.2899
48.39	4.2905
48.40	4.2910
48.42	4.2910
48.43	4.2918
48.45	4.2924
48.47	4.2924
48.48	4.2931
48.50	4.2939
48.52	4.2940
48.53	4.2948
48.55	4.2950
48.56	4.2955
48.58	4.2962
48.60	4.2967
48.62	4.2975
48.63	4.2983
48.65	4.2992
48.67	4.2998
48.68	4.3006
48.70	4.3010
48.72	4.3015
48.73	4.3020
48.75	4.3025
48.76	4.3029
48.78	4.3034
48.80	4.3038
48.81	4.3042
48.83	4.3047
48.85	4.3049
48.87	4.3056
48.88	4.3058
48.90	4.3061
48.92	4.3068
48.94	4.3073
48.95	4.3080
48.97	4.3087
48.98	4.3092
49.00	4.3100
49.02	4.3105
49.03	4.3111
49.05	4.3119
49.07	4.3124
49.08	4.3128
49.10	4.3134
49.12	4.3139
49.14	4.3142
49.15	4.3147
49.17	4.3151
49.18	4.3155
49.20	4.3161
49.22	4.3166
49.23	4.3169
49.25	4.3176
49.27	4.3183
49.29	4.3189
49.30	4.3196
49.32	4.3201
49.33	4.3207
49.35	4.3212
49.37	4.3217
49.38	4.3221
49.40	4.3228
49.42	4.3233
49.43	4.3238
49.45	4.3242
49.47	4.3248
49.48	4.3252
49.50	4.3256
49.52	4.3260
49.53	4.3265
49.55	4.3269
49.57	4.3275
49.58	4.3279
49.60	4.3285
49.62	4.3291
49.63	4.3296
49.65	4.3303
49.67	4.3309
49.69	4.3315
49.70	4.3319
49.71	4.3325
49.73	4.3330
49.75	4.3337
49.77	4.3343
49.79	4.3346
49.80	4.3352
49.82	4.3358
49.84	4.3363
49.85	4.3367
49.87	4.3372
49.88	4.3378
49.90	4.3384
49.92	4.3387
49.94	4.3392
49.95	4.3399
49.97	4.3406
49.98	4.3413
50.00	4.3421
50.02	4.3427
50.03	4.3433
50.05	4.3440
50.06	4.3446
50.08	4.3452
50.10	4.3457
50.12	4.3462
50.13	4.3467
50.15	4.3474
50.17	4.3480
50.18	4.3484
50.20	4.3489
50.21	4.3496
50.23	4.3500
50.25	4.3506
50.27	4.3510
50.29	4.3518
50.30	4.3524
50.32	4.3532
50.34	4.3541
50.35	4.3549
50.37	4.3555
50.38	4.3562
50.40	4.3568
50.42	4.3575
50.43	4.3581
50.45	4.3585
50.47	4.3590
50.48	4.3596
50.50	4.3604
50.51	4.3608
50.53	4.3614
50.55	4.3619
50.57	4.3623
50.59	4.3630
50.60	4.3636
50.62	4.3644
50.63	4.3651
50.65	4.3659
50.67	4.3666
50.68	4.3673
50.70	4.3679
50.72	4.3686
50.74	4.3692
50.75	4.3695
50.77	4.3701
50.78	4.3706
50.80	4.3713
50.81	4.3719
50.83	4.3723
50.84	4.3727
50.86	4.3732
50.88	4.3736
50.90	4.3742
50.92	4.3747
50.93	4.3753
50.95	4.3757
50.97	4.3763
50.98	4.3769
51.00	4.3776
51.01	4.3782
51.03	4.3789
51.05	4.3795
51.07	4.3802
51.08	4.3808
51.10	4.3815
51.12	4.3821
51.13	4.3828
51.15	4.3834
51.17	4.3839
51.18	4.3844
51.20	4.3852
51.22	4.3857
51.23	4.3862
51.25	4.3868
51.26	4.3872
51.28	4.3878
51.30	4.3884
51.32	4.3891
51.33	4.3898
51.34	4.3905
51.36	4.3913
51.38	4.3919
51.40	4.3927
51.42	4.3935
51.43	4.3943
51.45	4.3950
51.46	4.3956
51.48	4.3960
51.50	4.3966
51.52	4.3971
51.53	4.3976
51.55	4.3980
51.57	4.3985
51.58	4.3989
51.60	4.3997
51.62	4.4000
51.63	4.4005
51.65	4.4012
51.67	4.4019
51.68	4.4026
51.70	4.4031
51.72	4.4039
51.73	4.4045
51.75	4.4053
51.76	4.4061
51.78	4.4070
51.80	4.4077
51.81	4.4084
51.83	4.4088
51.84	4.4093
51.86	4.4099
51.88	4.4103
51.90	4.4107
51.91	4.4111
51.93	4.4116
51.95	4.4121
51.96	4.4124
51.98	4.4128
52.00	4.4134
52.01	4.4138
52.03	4.4145
52.05	4.4151
52.06	4.4157
52.08	4.4164
52.10	4.4170
52.12	4.4177
52.13	4.4181
52.15	4.4183
52.17	4.4188
52.18	4.4193
52.20	4.4198
52.22	4.4202
52.23	4.4207
52.25	4.4211
52.27	4.4216
52.28	4.4220
52.30	4.4226
52.32	4.4230
52.34	4.4235
52.35	4.4242
52.37	4.4250
52.38	4.4258
52.40	4.4265
52.41	4.4272
52.43	4.4278
52.45	4.4285
52.47	4.4293
52.48	4.4298
52.50	4.4306
52.51	4.4311
52.53	4.4316
52.55	4.4322
52.57	4.4327
52.58	4.4331
52.59	4.4338
52.61	4.4342
52.63	4.4347
52.65	4.4353
52.66	4.4359
52.68	4.4366
52.70	4.4372
52.72	4.4379
52.73	4.4387
52.75	4.4395
52.76	4.4404
52.78	4.4413
52.80	4.4418
52.81	4.4425
52.83	4.4431
52.84	4.4435
52.86	4.4442
52.88	4.4446
52.90	4.4450
52.91	4.4454
52.93	4.4457
52.94	4.4463
52.96	4.4465
52.98	4.4470
53.00	4.4474
53.01	4.4479
53.03	4.4484
53.05	4.4490
53.06	4.4498
53.08	4.4502
53.09	4.4509
53.11	4.4514
53.13	4.4521
53.14	4.4528
53.16	4.4532
53.18	4.4537
53.20	4.4544
53.21	4.4548
53.23	4.4552
53.25	4.4557
53.26	4.4562
53.27	4.4568
53.30	4.4575
53.32	4.4580
53.33	4.4586
53.34	4.4592
53.37	4.4599
53.38	4.4606
53.40	4.4615
53.41	4.4624
53.43	4.4631
53.45	4.4639
53.46	4.4644
53.48	4.4650
53.49	4.4657
53.51	4.4662
53.52	4.4666
53.54	4.4671
53.56	4.4675
53.58	4.4681
53.60	4.4687
53.62	4.4691
53.63	4.4697
53.65	4.4702
53.67	4.4707
53.68	4.4711
53.69	4.4717
53.71	4.4722
53.73	4.4729
53.74	4.4738
53.76	4.4744
53.77	4.4749
53.79	4.4754
53.81	4.4761
53.83	4.4767
53.84	4.4770
53.86	4.4775
53.88	4.4780
53.89	4.4786
53.91	4.4789
53.93	4.4795
53.95	4.4801
53.96	4.4806
53.98	4.4811
54.00	4.4816
54.01	4.4821
54.02	4.4827
54.04	4.4834
54.06	4.4840
54.08	4.4848
54.09	4.4856
54.11	4.4860
54.13	4.4868
54.14	4.4874
54.16	4.4880
54.18	4.4887
54.20	4.4893
54.21	4.4897
54.23	4.4902
54.24	4.4909
54.26	4.4915
54.28	4.4920
54.30	4.4927
54.31	4.4935
54.33	4.4939
54.34	4.4945
54.36	4.4950
54.38	4.4956
54.40	4.4963
54.41	4.4970
54.43	4.4976
54.45	4.4983
54.46	4.4990
54.48	4.4995
54.50	4.5000
54.51	4.5003
54.52	4.5007
54.55	4.5011
54.56	4.5017
54.58	4.5023
54.59	4.5029
54.61	4.5032
54.63	4.5037
54.65	4.5042
54.66	4.5045
54.68	4.5051
54.69	4.5058
54.71	4.5062
54.73	4.5071
54.74	4.5078
54.75	4.5085
54.77	4.5093
54.80	4.5098
54.81	4.5105
54.83	4.5110
54.84	4.5117
54.86	4.5120
54.88	4.5125
54.90	4.5130
54.91	4.5134
54.93	4.5140
54.95	4.5145
54.96	4.5153
54.98	4.5158
55.00	4.5164
55.01	4.5170
55.03	4.5175
55.05	4.5181
55.06	4.5188
55.08	4.5194
55.09	4.5200
55.11	4.5204
55.13	4.5209
55.14	4.5216
55.16	4.5221
55.18	4.5227
55.20	4.5232
55.21	4.5237
55.23	4.5241
55.25	4.5247
55.26	4.5251
55.27	4.5256
55.30	4.5261
55.31	4.5264
55.33	4.5269
55.34	4.5273
55.36	4.5277
55.38	4.5282
55.40	4.5288
55.40	4.5295
55.43	4.5301
55.45	4.5305
55.46	4.5311
55.46	4.5318
55.48	4.5326
55.51	4.5331
55.52	4.5338
55.54	4.5343
55.55	4.5349
55.57	4.5354
55.58	4.5359
55.62	4.5363
55.63	4.5367
55.64	4.5372
55.67	4.5377
55.67	4.5382
55.70	4.5387
55.71	4.5393
55.73	4.5399
55.75	4.5409
55.76	4.5415
55.77	4.5423
55.79	4.5429
55.81	4.5436
55.83	4.5441
55.84	4.5444
55.86	4.5449
55.88	4.5454
55.89	4.5459
55.91	4.5463
55.93	4.5470
55.94	4.5476
55.96	4.5479
55.98	4.5484
55.99	4.5490
56.01	4.5496
56.02	4.5502
56.04	4.5508
56.06	4.5513
56.08	4.5521
56.09	4.5530
56.12	4.5536
56.13	4.5542
56.15	4.5548
56.16	4.5554
56.18	4.5559
56.19	4.5566
56.21	4.5571
56.22	4.5576
56.25	4.5582
56.26	4.5587
56.27	4.5593
56.30	4.5600
56.31	4.5606
56.33	4.5611
56.34	4.5617
56.36	4.5623
56.38	4.5628
56.39	4.5632
56.41	4.5638
56.43	4.5645
56.45	4.5651
56.46	4.5657
56.48	4.5665
56.49	4.5674
56.51	4.5679
56.52	4.5685
56.55	4.5688
56.56	4.5692
56.58	4.5698
56.59	4.5705
56.61	4.5711
56.63	4.5719
56.65	4.5725
56.66	4.5730
56.68	4.5736
56.70	4.5742
56.71	4.5748
56.73	4.5753
56.75	4.5760
56.76	4.5768
56.77	4.5776
56.79	4.5782
56.81	4.5791
56.83	4.5797
56.84	4.5803
56.86	4.5808
56.88	4.5814
56.90	4.5820
56.91	4.5824
56.93	4.5830
56.94	4.5838
56.96	4.5842
56.98	4.5848
56.99	4.5852
57.01	4.5858
57.03	4.5863
57.05	4.5869
57.06	4.5872
57.08	4.5879
57.09	4.5885
57.11	4.5891
57.13	4.5897
57.14	4.5905
57.16	4.5910
57.18	4.5915
57.20	4.5921
57.21	4.5925
57.23	4.5931
57.24	4.5937
57.26	4.5942
57.28	4.5946
57.30	4.5952
57.31	4.5954
57.33	4.5960
57.34	4.5964
57.36	4.5967
57.38	4.5974
57.39	4.5980
57.41	4.5986
57.43	4.5992
57.45	4.6000
57.46	4.6007
57.48	4.6015
57.49	4.6021
57.51	4.6027
57.52	4.6033
57.54	4.6040
57.56	4.6045
57.58	4.6052
57.59	4.6059
57.61	4.6067
57.63	4.6073
57.64	4.6080
57.66	4.6085
57.68	4.6091
57.69	4.6098
57.71	4.6102
57.73	4.6108
57.74	4.6114
57.75	4.6119
57.77	4.6127
57.79	4.6136
57.80	4.6144
57.83	4.6152
57.84	4.6159
57.85	4.6163
57.88	4.6168
57.89	4.6175
57.91	4.6180
57.93	4.6185
57.94	4.6191
57.96	4.6195
57.98	4.6197
58.00	4.6202
58.01	4.6206
58.02	4.6212
58.04	4.6217
58.06	4.6220
58.08	4.6224
58.09	4.6229
58.11	4.6235
58.13	4.6240
58.15	4.6248
58.16	4.6256
58.18	4.6261
58.19	4.6269
58.21	4.6272
58.23	4.6277
58.24	4.6282
58.26	4.6285
58.28	4.6288
58.30	4.6293
58.31	4.6297
58.33	4.6301
58.34	4.6303
58.35	4.6307
58.37	4.6311
58.39	4.6315
58.41	4.6320
58.43	4.6324
58.44	4.6330
58.46	4.6337
58.47	4.6344
58.49	4.6349
58.51	4.6356
58.52	4.6362
58.54	4.6366
58.56	4.6372
58.58	4.6378
58.59	4.6384
58.61	4.6391
58.62	4.6397
58.64	4.6402
58.66	4.6405
58.68	4.6411
58.69	4.6418
58.70	4.6422
58.73	4.6426
58.74	4.6432
58.75	4.6438
58.77	4.6445
58.79	4.6452
58.81	4.6459
58.83	4.6465
58.84	4.6470
58.86	4.6478
58.88	4.6484
58.90	4.6489
58.91	4.6496
58.93	4.6501
58.95	4.6508
58.96	4.6513
58.97	4.6520
58.99	4.6526
59.01	4.6531
59.03	4.6535
59.04	4.6539
59.06	4.6543
59.07	4.6548
59.09	4.6553
59.11	4.6560
59.13	4.6567
59.14	4.6574
59.16	4.6580
59.18	4.6586
59.19	4.6592
59.20	4.6600
59.23	4.6605
59.24	4.6611
59.26	4.6615
59.27	4.6622
59.29	4.6628
59.30	4.6633
59.32	4.6639
59.34	4.6644
59.35	4.6651
59.37	4.6655
59.39	4.6659
59.40	4.6665
59.42	4.6671
59.44	4.6677
59.46	4.6685
59.48	4.6693
59.49	4.6700
59.51	4.6707
59.52	4.6715
59.54	4.6722
59.56	4.6728
59.57	4.6735
59.59	4.6740
59.60	4.6746
59.62	4.6751
59.64	4.6756
59.65	4.6762
59.68	4.6767
59.69	4.6772
59.70	4.6777
59.72	4.6784
59.74	4.6790
59.75	4.6797
59.77	4.6802
59.79	4.6809
59.80	4.6815
59.82	4.6823
59.84	4.6829
59.85	4.6836
59.87	4.6843
59.89	4.6846
59.90	4.6852
59.93	4.6856
59.94	4.6860
59.96	4.6866
59.98	4.6871
59.99	4.6873
60.00	4.6878
60.02	4.6880
60.04	4.6884
60.05	4.6888
60.07	4.6893
60.09	4.6897
60.11	4.6903
60.12	4.6911
60.14	4.6915
60.16	4.6921
60.17	4.6925
60.19	4.6930
60.21	4.6935
60.22	4.6939
60.24	4.6943
60.25	4.6948
60.27	4.6953
60.29	4.6957
60.31	4.6959
60.32	4.6963
60.34	4.6967
60.35	4.6973
60.37	4.6973
60.38	4.6977
60.40	4.6981
60.42	4.6984
60.44	4.6988
60.46	4.6994
60.48	4.7003
60.49	4.7010
60.50	4.7015
60.52	4.7020
60.54	4.7023
60.55	4.7029
60.57	4.7035
60.59	4.7040
60.60	4.7046
60.62	4.7051
60.64	4.7054
60.65	4.7061
60.67	4.7066
60.69	4.7071
60.70	4.7074
60.72	4.7082
60.74	4.7086
60.75	4.7091
60.77	4.7099
60.79	4.7104
60.80	4.7110
60.82	4.7118
60.84	4.7124
60.85	4.7129
60.87	4.7138
60.88	4.7143
60.90	4.7150
60.93	4.7159
60.94	4.7164
60.96	4.7169
60.98	4.7175
60.99	4.7178
61.00	4.7183
61.02	4.7188
61.04	4.7191
61.06	4.7194
61.08	4.7198
61.09	4.7204
61.10	4.7208
61.12	4.7214
61.14	4.7218
61.15	4.7225
61.17	4.7230
61.19	4.7236
61.20	4.7244
61.22	4.7249
61.24	4.7254
61.25	4.7258
61.27	4.7263
61.29	4.7265
61.30	4.7270
61.32	4.7273
61.34	4.7277
61.35	4.7281
61.37	4.7285
61.39	4.7289
61.40	4.7294
61.42	4.7299
61.44	4.7307
61.45	4.7312
61.47	4.7317
61.48	4.7323
61.50	4.7328
61.52	4.7334
61.54	4.7342
61.55	4.7346
61.57	4.7352
61.59	4.7358
61.60	4.7363
61.62	4.7369
61.64	4.7374
61.65	4.7381
61.67	4.7388
61.69	4.7394
61.70	4.7401
61.72	4.7407
61.73	4.7412
61.75	4.7417
61.77	4.7424
61.79	4.7431
61.80	4.7439
61.81	4.7446
61.84	4.7454
61.85	4.7461
61.88	4.7467
61.89	4.7474
61.90	4.7481
61.92	4.7488
61.94	4.7492
61.95	4.7497
61.97	4.7501
61.98	4.7506
62.00	4.7513
62.02	4.7518
62.04	4.7525
62.05	4.7531
62.07	4.7537
62.09	4.7541
62.10	4.7547
62.11	4.7551
62.13	4.7556
62.15	4.7563
62.17	4.7570
62.19	4.7575
62.20	4.7581
62.22	4.7583
62.24	4.7588
62.25	4.7595
62.27	4.7600
62.28	4.7605
62.30	4.7609
62.32	4.7616
62.33	4.7620
62.35	4.7626
62.37	4.7631
62.39	4.7636
62.40	4.7642
62.42	4.7646
62.43	4.7654
62.45	4.7661
62.47	4.7670
62.48	4.7675
62.51	4.7681
62.52	4.7688
62.54	4.7694
62.56	4.7699
62.57	4.7705
62.59	4.7710
62.60	4.7716
62.62	4.7721
62.64	4.7726
62.65	4.7730
62.68	4.7733
62.69	4.7737
62.70	4.7744
62.72	4.7748
62.73	4.7753
62.75	4.7760
62.77	4.7766
62.78	4.7771
62.80	4.7779
62.81	4.7787
62.84	4.7796
62.85	4.7803
62.87	4.7810
62.88	4.7815
62.90	4.7822
62.93	4.7830
62.94	4.7834
62.95	4.7839
62.97	4.7846
62.98	4.7851
63.00	4.7856
63.02	4.7861
63.04	4.7863
63.06	4.7867
63.07	4.7872
63.08	4.7877
63.10	4.7881
63.12	4.7889
63.14	4.7897
63.15	4.7905
63.17	4.7912
63.19	4.7919
63.20	4.7926
63.22	4.7932
63.23	4.7936
63.25	4.7942
63.27	4.7946
63.29	4.7951
63.30	4.7955
63.32	4.7961
63.34	4.7966
63.36	4.7972
63.37	4.7979
63.38	4.7984
63.40	4.7988
63.42	4.7994
63.44	4.8000
63.45	4.8006
63.47	4.8011
63.48	4.8019
63.50	4.8027
63.52	4.8033
63.54	4.8038
63.55	4.8044
63.57	4.8049
63.58	4.8055
63.60	4.8061
63.62	4.8066
63.63	4.8072
63.65	4.8077
63.67	4.8081
63.68	4.8085
63.70	4.8091
63.72	4.8096
63.74	4.8100
63.75	4.8107
63.77	4.8112
63.79	4.8118
63.80	4.8124
63.82	4.8131
63.84	4.8136
63.85	4.8142
63.87	4.8146
63.88	4.8152
63.90	4.8155
63.92	4.8160
63.94	4.8166
63.95	4.8170
63.98	4.8175
63.99	4.8179
64.00	4.8183
64.02	4.8187
64.04	4.8192
64.05	4.8197
64.07	4.8200
64.08	4.8205
64.10	4.8209
64.12	4.8214
64.14	4.8222
64.16	4.8230
64.17	4.8236
64.19	4.8242
64.21	4.8248
64.22	4.8252
64.24	4.8258
64.25	4.8267
64.27	4.8270
64.29	4.8276
64.30	4.8282
64.32	4.8287
64.33	4.8293
64.35	4.8299
64.37	4.8307
64.38	4.8310
64.40	4.8315
64.42	4.8322
64.43	4.8328
64.45	4.8335
64.47	4.8341
64.49	4.8349
64.50	4.8356
64.52	4.8361
64.54	4.8369
64.56	4.8374
64.57	4.8381
64.59	4.8387
64.60	4.8391
64.62	4.8395
64.64	4.8400
64.66	4.8405
64.67	4.8409
64.69	4.8413
64.70	4.8417
64.72	4.8421
64.74	4.8425
64.75	4.8430
64.77	4.8435
64.79	4.8443
64.81	4.8449
64.83	4.8457
64.84	4.8464
64.86	4.8470
64.87	4.8477
64.89	4.8484
64.90	4.8492
64.92	4.8499
64.94	4.8505
64.96	4.8512
64.97	4.8518
64.99	4.8524
65.00	4.8530
65.02	4.8537
65.04	4.8541
65.05	4.8546
65.07	4.8550
65.08	4.8554
65.10	4.8558
65.12	4.8563
65.14	4.8567
65.15	4.8576
65.17	4.8581
65.19	4.8589
65.20	4.8593
65.22	4.8598
65.24	4.8604
65.25	4.8610
65.27	4.8616
65.29	4.8619
65.30	4.8625
65.32	4.8631
65.33	4.8635
65.35	4.8640
65.37	4.8644
65.38	4.8648
65.40	4.8653
65.41	4.8658
65.43	4.8663
65.45	4.8670
65.47	4.8677
65.49	4.8687
65.50	4.8693
65.52	4.8697
65.54	4.8703
65.55	4.8711
65.57	4.8717
65.59	4.8723
65.60	4.8727
65.62	4.8731
65.63	4.8736
65.65	4.8741
65.67	4.8747
65.69	4.8751
65.70	4.8755
65.72	4.8760
65.74	4.8766
65.75	4.8773
65.77	4.8777
65.79	4.8783
65.80	4.8790
65.82	4.8797
65.83	4.8804
65.85	4.8809
65.87	4.8815
65.89	4.8820
65.90	4.8825
65.92	4.8830
65.93	4.8833
65.95	4.8837
65.97	4.8841
65.99	4.8845
66.00	4.8851
66.02	4.8855
66.03	4.8861
66.05	4.8864
66.07	4.8869
66.09	4.8874
66.10	4.8880
66.12	4.8883
66.14	4.8890
66.15	4.8898
66.17	4.8904
66.19	4.8912
66.20	4.8920
66.22	4.8926
66.24	4.8934
66.25	4.8939
66.27	4.8944
66.28	4.8951
66.30	4.8957
66.32	4.8962
66.33	4.8964
66.35	4.8968
66.37	4.8971
66.39	4.8975
66.40	4.8979
66.42	4.8983
66.44	4.8987
66.45	4.8991
66.47	4.8997
66.49	4.9002
66.50	4.9008
66.52	4.9015
66.54	4.9022
66.55	4.9028
66.57	4.9033
66.59	4.9038
66.60	4.9042
66.62	4.9047
66.64	4.9051
66.65	4.9057
66.67	4.9062
66.69	4.9068
66.70	4.9074
66.72	4.9081
66.74	4.9086
66.75	4.9093
66.77	4.9098
66.78	4.9106
66.80	4.9114
66.82	4.9120
66.83	4.9127
66.85	4.9134
66.87	4.9141
66.89	4.9149
66.90	4.9156
66.92	4.9159
66.93	4.9167
66.95	4.9173
66.97	4.9178
66.99	4.9185
67.00	4.9192
67.02	4.9195
67.04	4.9202
67.05	4.9208
67.07	4.9213
67.09	4.9218
67.10	4.9226
67.12	4.9232
67.14	4.9239
67.15	4.9247
67.17	4.9254
67.19	4.9263
67.20	4.9267
67.22	4.9273
67.23	4.9280
67.25	4.9285
67.27	4.9292
67.29	4.9296
67.30	4.9302
67.32	4.9307
67.34	4.9311
67.35	4.9316
67.37	4.9322
67.38	4.9327
67.40	4.9331
67.42	4.9336
67.44	4.9342
67.45	4.9347
67.47	4.9351
67.49	4.9355
67.50	4.9359
67.52	4.9364
67.53	4.9367
67.55	4.9374
67.57	4.9379
67.59	4.9384
67.60	4.9390
67.62	4.9397
67.63	4.9404
67.65	4.9409
67.67	4.9412
67.68	4.9418
67.70	4.9423
67.72	4.9429
67.74	4.9433
67.75	4.9440
67.77	4.9445
67.78	4.9453
67.80	4.9462
67.82	4.9469
67.83	4.9476
67.85	4.9483
67.87	4.9490
67.88	4.9498
67.90	4.9504
67.92	4.9511
67.94	4.9516
67.95	4.9522
67.97	4.9526
67.99	4.9532
68.00	4.9537
68.02	4.9542
68.03	4.9549
68.05	4.9554
68.07	4.9557
68.08	4.9562
68.10	4.9571
68.12	4.9578
68.14	4.9583
68.15	4.9591
68.17	4.9598
68.18	4.9602
68.20	4.9607
68.22	4.9614
68.23	4.9621
68.25	4.9626
68.27	4.9633
68.28	4.9639
68.30	4.9643
68.32	4.9648
68.33	4.9651
68.35	4.9657
68.37	4.9660
68.39	4.9664
68.40	4.9670
68.42	4.9676
68.44	4.9683
68.45	4.9690
68.47	4.9697
68.49	4.9705
68.50	4.9713
68.52	4.9719
68.54	4.9726
68.55	4.9729
68.57	4.9735
68.58	4.9739
68.60	4.9744
68.62	4.9748
68.63	4.9753
68.65	4.9759
68.67	4.9766
68.68	4.9770
68.70	4.9775
68.72	4.9780
68.73	4.9785
68.75	4.9789
68.77	4.9794
68.78	4.9801
68.80	4.9807
68.82	4.9814
68.84	4.9818
68.85	4.9824
68.87	4.9830
68.89	4.9836
68.90	4.9842
68.92	4.9848
68.94	4.9852
68.95	4.9859
68.97	4.9863
68.98	4.9867
69.00	4.9872
69.02	4.9878
69.04	4.9885
69.05	4.9888
69.07	4.9892
69.09	4.9899
69.10	4.9904
69.12	4.9912
69.14	4.9918
69.15	4.9924
69.17	4.9931
69.19	4.9940
69.20	4.9944
69.22	4.9952
69.24	4.9958
69.25	4.9964
69.27	4.9971
69.29	4.9978
69.30	4.9983
69.32	4.9989
69.34	4.9994
69.35	4.9998
69.37	5.0004
69.39	5.0009
69.40	5.0014
69.42	5.0019
69.44	5.0024
69.45	5.0031
69.47	5.0037
69.49	5.0045
69.50	5.0048
69.52	5.0056
69.54	5.0063
69.55	5.0067
69.57	5.0073
69.59	5.0078
69.60	5.0085
69.62	5.0091
69.64	5.0098
69.65	5.0102
69.67	5.0107
69.68	5.0111
69.70	5.0115
69.72	5.0118
69.73	5.0125
69.75	5.0130
69.77	5.0137
69.78	5.0146
69.80	5.0152
69.82	5.0160
69.84	5.0170
69.85	5.0178
69.87	5.0185
69.89	5.0190
69.90	5.0197
69.92	5.0204
69.93	5.0209
69.95	5.0215
69.97	5.0222
69.99	5.0228
70.00	5.0233
70.02	5.0238
70.03	5.0243
70.05	5.0248
70.06	5.0254
70.08	5.0262
70.10	5.0268
70.12	5.0274
70.13	5.0282
70.15	5.0287
70.17	5.0295
70.18	5.0301
70.20	5.0307
70.22	5.0313
70.24	5.0317
70.25	5.0323
70.27	5.0329
70.28	5.0334
70.30	5.0340
70.32	5.0345
70.33	5.0352
70.35	5.0355
70.37	5.0360
70.39	5.0364
70.40	5.0369
70.42	5.0375
70.43	5.0381
70.45	5.0388
70.47	5.0395
70.48	5.0401
70.50	5.0407
70.52	5.0412
70.53	5.0419
70.55	5.0425
70.56	5.0429
70.58	5.0436
70.59	5.0441
70.62	5.0444
70.63	5.0452
70.65	5.0458
70.67	5.0463
70.68	5.0467
70.70	5.0471
70.72	5.0478
70.73	5.0483
70.75	5.0490
70.77	5.0497
70.78	5.0504
70.80	5.0510
70.82	5.0515
70.83	5.0520
70.85	5.0526
70.87	5.0531
70.88	5.0537
70.90	5.0540
70.92	5.0547
70.93	5.0550
70.95	5.0555
70.97	5.0559
70.98	5.0563
71.00	5.0569
71.02	5.0572
71.04	5.0576
71.05	5.0578
71.07	5.0581
71.08	5.0589
71.10	5.0591
71.12	5.0599
71.13	5.0605
71.15	5.0611
71.17	5.0617
71.18	5.0624
71.20	5.0629
71.22	5.0635
71.23	5.0641
71.25	5.0647
71.27	5.0652
71.28	5.0658
71.30	5.0662
71.32	5.0670
71.34	5.0675
71.35	5.0680
71.36	5.0685
71.38	5.0691
71.40	5.0696
71.42	5.0703
71.43	5.0709
71.45	5.0716
71.47	5.0725
71.48	5.0731
71.50	5.0739
71.52	5.0747
71.54	5.0754
71.55	5.0759
71.57	5.0766
71.59	5.0771
71.59	5.0777
71.61	5.0782
71.63	5.0787
71.65	5.0791
71.67	5.0797
71.68	5.0803
71.70	5.0810
71.72	5.0815
71.73	5.0821
71.75	5.0826
71.76	5.0832
71.78	5.0839
71.80	5.0845
71.82	5.0852
71.83	5.0859
71.85	5.0864
71.87	5.0871
71.88	5.0879
71.90	5.0886
71.92	5.0891
71.93	5.0897
71.95	5.0902
71.97	5.0909
71.99	5.0916
72.00	5.0921
72.02	5.0928
72.03	5.0935
72.05	5.0941
72.07	5.0948
72.08	5.0956
72.10	5.0963
72.12	5.0971
72.13	5.0979
72.14	5.0986
72.16	5.0991
72.18	5.0998
72.20	5.1005
72.22	5.1010
72.24	5.1016
72.25	5.1022
72.27	5.1027
72.28	5.1032
72.30	5.1036
72.31	5.1039
72.33	5.1041
72.34	5.1042
72.37	5.1044
72.38	5.1048
72.40	5.1052
72.42	5.1058
72.43	5.1065
72.45	5.1069
72.46	5.1075
72.48	5.1081
72.50	5.1086
72.52	5.1092
72.53	5.1099
72.55	5.1102
72.57	5.1109
72.59	5.1114
72.60	5.1119
72.62	5.1123
72.63	5.1128
72.65	5.1132
72.67	5.1137
72.68	5.1143
72.70	5.1146
72.72	5.1154
72.73	5.1159
72.75	5.1165
72.76	5.1173
72.78	5.1180
72.80	5.1186
72.82	5.1192
72.83	5.1200
72.85	5.1206
72.87	5.1213
72.88	5.1220
72.90	5.1227
72.92	5.1233
72.93	5.1242
72.95	5.1247
72.97	5.1253
72.98	5.1260
73.00	5.1265
73.02	5.1270
73.04	5.1277
73.05	5.1281
73.07	5.1290
73.09	5.1298
73.10	5.1307
73.12	5.1315
73.13	5.1322
73.15	5.1328
73.17	5.1336
73.18	5.1345
73.20	5.1351
73.22	5.1354
73.24	5.1359
73.25	5.1369
73.27	5.1374
73.28	5.1380
73.30	5.1385
73.31	5.1391
73.33	5.1398
73.35	5.1404
73.37	5.1410
73.39	5.1415
73.40	5.1423
73.42	5.1432
73.44	5.1440
73.45	5.1448
73.47	5.1456
73.48	5.1464
73.50	5.1471
73.51	5.1478
73.53	5.1483
73.55	5.1489
73.57	5.1497
73.59	5.1503
73.60	5.1511
73.62	5.1516
73.64	5.1522
73.65	5.1529
73.67	5.1535
73.69	5.1542
73.70	5.1547
73.71	5.1553
73.73	5.1559
73.75	5.1566
73.77	5.1574
73.79	5.1581
73.80	5.1588
73.82	5.1596
73.84	5.1599
73.85	5.1608
73.87	5.1614
73.89	5.1621
73.90	5.1627
73.92	5.1635
73.93	5.1638
73.95	5.1645
73.97	5.1652
73.99	5.1656
74.00	5.1663
74.02	5.1669
74.04	5.1674
74.05	5.1680
74.07	5.1687
74.09	5.1693
74.11	5.1700
74.12	5.1708
74.14	5.1715
74.15	5.1723
74.17	5.1730
74.18	5.1735
74.20	5.1742
74.22	5.1747
74.24	5.1754
74.25	5.1759
74.27	5.1768
74.29	5.1772
74.30	5.1778
74.32	5.1782
74.34	5.1787
74.35	5.1792
74.37	5.1798
74.39	5.1806
74.40	5.1812
74.42	5.1820
74.44	5.1826
74.46	5.1833
74.48	5.1840
74.49	5.1843
74.50	5.1847
74.52	5.1853
74.54	5.1856
74.55	5.1862
74.57	5.1869
74.59	5.1873
74.60	5.1879
74.62	5.1884
74.63	5.1888
74.65	5.1893
74.67	5.1899
74.68	5.1902
74.70	5.1906
74.72	5.1913
74.74	5.1918
74.75	5.1925
74.77	5.1930
74.79	5.1936
74.80	5.1942
74.82	5.1949
74.84	5.1952
74.85	5.1959
74.87	5.1965
74.89	5.1970
74.90	5.1976
74.92	5.1982
74.94	5.1985
74.95	5.1992
74.98	5.1998
74.99	5.2003
75.00	5.2008
75.02	5.2017
75.04	5.2021
75.05	5.2029
75.07	5.2039
75.08	5.2046
75.10	5.2052
75.12	5.2059
75.13	5.2065
75.15	5.2072
75.17	5.2080
75.19	5.2087
75.20	5.2094
75.22	5.2102
75.24	5.2109
75.26	5.2117
75.27	5.2120
75.29	5.2127
75.30	5.2133
75.32	5.2142
75.33	5.2147
75.35	5.2155
75.37	5.2161
75.39	5.2169
75.40	5.2175
75.42	5.2182
75.43	5.2187
75.45	5.2192
75.46	5.2200
75.48	5.2206
75.51	5.2212
75.52	5.2217
75.54	5.2222
75.55	5.2227
75.57	5.2232
75.58	5.2236
75.59	5.2242
75.62	5.2245
75.63	5.2250
75.65	5.2252
75.67	5.2257
75.69	5.2260
75.70	5.2269
75.72	5.2274
75.74	5.2281
75.76	5.2286
75.77	5.2293
75.79	5.2300
75.80	5.2305
75.82	5.2313
75.83	5.2319
75.85	5.2327
75.87	5.2334
75.89	5.2339
75.90	5.2344
75.92	5.2351
75.94	5.2357
75.95	5.2365
75.97	5.2370
75.99	5.2375
76.00	5.2381
76.02	5.2387
76.04	5.2394
76.05	5.2403
76.07	5.2411
76.08	5.2418
76.10	5.2427
76.12	5.2434
76.14	5.2439
76.15	5.2447
76.17	5.2454
76.19	5.2462
76.20	5.2468
76.22	5.2473
76.24	5.2480
76.26	5.2488
76.28	5.2494
76.30	5.2501
76.31	5.2508
76.32	5.2515
76.34	5.2521
76.36	5.2532
76.37	5.2539
76.38	5.2548
76.40	5.2558
76.42	5.2567
76.44	5.2573
76.45	5.2579
76.47	5.2587
76.49	5.2591
76.50	5.2597
76.52	5.2603
76.53	5.2609
76.55	5.2615
76.57	5.2621
76.59	5.2625
76.61	5.2630
76.62	5.2635
76.64	5.2640
76.65	5.2646
76.67	5.2653
76.68	5.2661
76.71	5.2668
76.72	5.2676
76.73	5.2684
76.75	5.2692
76.77	5.2700
76.79	5.2707
76.80	5.2713
76.82	5.2717
76.83	5.2722
76.85	5.2728
76.87	5.2733
76.89	5.2737
76.90	5.2744
76.92	5.2748
76.94	5.2753
76.95	5.2760
76.97	5.2766
76.99	5.2772
77.00	5.2777
77.03	5.2785
77.04	5.2793
77.06	5.2800
77.07	5.2806
77.09	5.2811
77.10	5.2817
77.12	5.2823
77.13	5.2830
77.15	5.2834
77.17	5.2840
77.18	5.2844
77.20	5.2849
77.22	5.2855
77.24	5.2858
77.25	5.2865
77.27	5.2870
77.29	5.2875
77.30	5.2882
77.32	5.2887
77.34	5.2893
77.35	5.2899
77.37	5.2908
77.39	5.2915
77.40	5.2921
77.42	5.2928
77.44	5.2934
77.45	5.2941
77.47	5.2947
77.48	5.2953
77.50	5.2958
77.53	5.2965
77.54	5.2972
77.55	5.2977
77.57	5.2985
77.59	5.2990
77.60	5.2998
77.63	5.3004
77.64	5.3010
77.65	5.3016
77.67	5.3024
77.69	5.3031
77.70	5.3037
77.72	5.3045
77.73	5.3051
77.75	5.3058
77.78	5.3068
77.79	5.3074
77.81	5.3082
77.82	5.3088
77.84	5.3095
77.86	5.3101
77.88	5.3106
77.88	5.3112
77.90	5.3120
77.92	5.3127
77.93	5.3133
77.95	5.3141
77.97	5.3146
77.99	5.3151
78.00	5.3159
78.02	5.3167
78.04	5.3171
78.05	5.3177
78.08	5.3185
78.09	5.3191
78.10	5.3197
78.12	5.3204
78.13	5.3209
78.16	5.3213
78.17	5.3222
78.19	5.3226
78.20	5.3233
78.22	5.3238
78.24	5.3243
78.25	5.3249
78.27	5.3254
78.29	5.3260
78.30	5.3263
78.32	5.3269
78.34	5.3276
78.35	5.3285
78.37	5.3292
78.39	5.3300
78.40	5.3306
78.42	5.3314
78.44	5.3321
78.45	5.3327
78.47	5.3333
78.48	5.3339
78.50	5.3344
78.52	5.3348
78.54	5.3355
78.55	5.3359
78.57	5.3363
78.59	5.3369
78.60	5.3373
78.62	5.3378
78.64	5.3383
78.65	5.3388
78.67	5.3394
78.69	5.3401
78.71	5.3409
78.73	5.3415
78.74	5.3422
78.75	5.3428
78.77	5.3432
78.78	5.3439
78.80	5.3446
78.82	5.3449
78.84	5.3452
78.85	5.3457
78.87	5.3461
78.89	5.3465
78.90	5.3470
78.92	5.3476
78.94	5.3482
78.96	5.3488
78.97	5.3495
78.99	5.3501
79.00	5.3510
79.02	5.3518
79.04	5.3527
79.06	5.3535
79.07	5.3542
79.09	5.3550
79.10	5.3558
79.12	5.3564
79.14	5.3572
79.15	5.3575
79.17	5.3581
79.19	5.3588
79.21	5.3594
79.22	5.3602
79.23	5.3608
79.25	5.3615
79.27	5.3623
79.29	5.3630
79.30	5.3639
79.32	5.3648
79.34	5.3656
79.35	5.3664
79.37	5.3673
79.39	5.3681
79.40	5.3688
79.42	5.3695
79.44	5.3703
79.45	5.3709
79.47	5.3716
79.49	5.3723
79.50	5.3729
79.52	5.3735
79.54	5.3740
79.55	5.3746
79.57	5.3751
79.58	5.3755
79.59	5.3762
79.62	5.3766
79.64	5.3774
79.66	5.3782
79.67	5.3788
79.69	5.3795
79.70	5.3799
79.73	5.3805
79.74	5.3812
79.76	5.3817
79.77	5.3823
79.78	5.3829
79.80	5.3834
79.82	5.3837
79.84	5.3842
79.85	5.3848
79.87	5.3854
79.89	5.3860
79.90	5.3867
79.92	5.3872
79.94	5.3878
79.95	5.3885
79.97	5.3892
79.98	5.3900
80.00	5.3908
80.02	5.3915
80.03	5.3924
80.05	5.3932
80.07	5.3939
80.08	5.3947
80.10	5.3954
80.13	5.3961
80.14	5.3967
80.15	5.3974
80.17	5.3979
80.19	5.3987
80.20	5.3992
80.22	5.3998
80.23	5.4005
80.25	5.4015
80.27	5.4023
80.29	5.4034
80.30	5.4043
80.32	5.4052
80.34	5.4060
80.36	5.4067
80.37	5.4073
80.39	5.4082
80.40	5.4088
80.42	5.4096
80.43	5.4105
80.45	5.4111
80.47	5.4118
80.49	5.4125
80.51	5.4132
80.53	5.4140
80.54	5.4147
80.55	5.4155
80.57	5.4162
80.58	5.4170
80.60	5.4180
80.62	5.4187
80.64	5.4193
80.65	5.4202
80.67	5.4208
80.69	5.4215
80.70	5.4223
80.72	5.4230
80.74	5.4233
80.75	5.4241
80.77	5.4247
80.78	5.4255
80.80	5.4264
80.82	5.4272
80.84	5.4276
80.85	5.4285
80.87	5.4289
80.89	5.4298
80.90	5.4305
80.92	5.4311
80.93	5.4318
80.95	5.4324
80.97	5.4329
80.98	5.4336
81.00	5.4343
81.02	5.4347
81.03	5.4355
81.05	5.4364
81.07	5.4371
81.09	5.4377
81.10	5.4384
81.12	5.4392
81.14	5.4401
81.15	5.4408
81.17	5.4412
81.18	5.4420
81.20	5.4425
81.22	5.4430
81.23	5.4436
81.25	5.4443
81.27	5.4449
81.28	5.4456
81.30	5.4465
81.32	5.4474
81.34	5.4483
81.35	5.4491
81.36	5.4500
81.38	5.4509
81.40	5.4517
81.42	5.4525
81.44	5.4536
81.45	5.4544
81.46	5.4554
81.48	5.4563
81.50	5.4572
81.52	5.4577
81.53	5.4586
81.55	5.4595
81.57	5.4606
81.59	5.4616
81.60	5.4622
81.62	5.4629
81.63	5.4637
81.65	5.4643
81.67	5.4649
81.68	5.4655
81.70	5.4661
81.72	5.4666
81.73	5.4673
81.75	5.4677
81.77	5.4682
81.78	5.4688
81.80	5.4695
81.82	5.4701
81.83	5.4708
81.84	5.4714
81.87	5.4719
81.88	5.4726
81.89	5.4730
81.92	5.4734
81.93	5.4739
81.95	5.4744
81.96	5.4748
81.98	5.4751
82.00	5.4757
82.02	5.4759
82.03	5.4764
82.05	5.4773
82.07	5.4780
82.08	5.4786
82.09	5.4794
82.12	5.4800
82.13	5.4805
82.15	5.4810
82.16	5.4813
82.18	5.4818
82.20	5.4823
82.22	5.4827
82.23	5.4830
82.25	5.4836
82.27	5.4841
82.28	5.4844
82.30	5.4852
82.31	5.4858
82.33	5.4865
82.34	5.4870
82.36	5.4877
82.38	5.4883
82.39	5.4889
82.41	5.4894
82.43	5.4899
82.45	5.4902
82.46	5.4906
82.48	5.4910
82.50	5.4915
82.51	5.4918
82.53	5.4924
82.55	5.4928
82.57	5.4934
82.58	5.4942
82.59	5.4949
82.61	5.4955
82.63	5.4962
82.64	5.4969
82.66	5.4976
82.68	5.4981
82.70	5.4988
82.71	5.4992
82.73	5.4999
82.75	5.5005
82.76	5.5010
82.78	5.5014
82.79	5.5020
82.81	5.5027
82.83	5.5032
82.84	5.5040
82.86	5.5047
82.88	5.5053
82.89	5.5059
82.91	5.5064
82.93	5.5071
82.94	5.5075
82.96	5.5079
82.98	5.5086
83.00	5.5090
83.01	5.5096
83.03	5.5100
83.05	5.5105
83.06	5.5111
83.08	5.5117
83.10	5.5125
83.11	5.5133
83.13	5.5141
83.14	5.5148
83.16	5.5156
83.18	5.5162
83.20	5.5172
83.21	5.5179
83.23	5.5187
83.25	5.5193
83.26	5.5201
83.28	5.5207
83.30	5.5212
83.31	5.5216
83.33	5.5223
83.35	5.5228
83.37	5.5233
83.38	5.5240
83.39	5.5246
83.41	5.5251
83.43	5.5256
83.45	5.5262
83.46	5.5267
83.48	5.5273
83.50	5.5279
83.51	5.5282
83.53	5.5286
83.55	5.5289
83.56	5.5296
83.58	5.5301
83.59	5.5306
83.61	5.5313
83.63	5.5321
83.64	5.5329
83.66	5.5336
83.68	5.5343
83.70	5.5349
83.71	5.5357
83.73	5.5365
83.75	5.5371
83.76	5.5380
83.78	5.5390
83.80	5.5397
83.81	5.5406
83.83	5.5416
83.84	5.5425
83.86	5.5435
83.88	5.5444
83.89	5.5453
83.91	5.5461
83.93	5.5468
83.94	5.5476
83.96	5.5482
83.98	5.5488
83.99	5.5496
84.01	5.5502
84.03	5.5509
84.05	5.5514
84.06	5.5521
84.08	5.5529
84.09	5.5535
84.11	5.5542
84.13	5.5549
84.14	5.5556
84.16	5.5563
84.18	5.5570
84.19	5.5574
84.21	5.5583
84.23	5.5591
84.24	5.5597
84.26	5.5604
84.28	5.5609
84.29	5.5615
84.31	5.5619
84.33	5.5624
84.34	5.5627
84.35	5.5634
84.38	5.5638
84.39	5.5644
84.41	5.5653
84.42	5.5660
84.44	5.5665
84.46	5.5671
84.48	5.5675
84.49	5.5679
84.51	5.5684
84.53	5.5689
84.54	5.5696
84.56	5.5700
84.58	5.5706
84.59	5.5711
84.61	5.5717
84.63	5.5724
84.64	5.5734
84.66	5.5739
84.67	5.5746
84.70	5.5753
84.71	5.5762
84.72	5.5770
84.75	5.5776
84.76	5.5786
84.78	5.5792
84.80	5.5799
84.81	5.5806
84.83	5.5812
84.84	5.5820
84.86	5.5827
84.88	5.5837
84.89	5.5846
84.91	5.5854
84.93	5.5865
84.94	5.5872
84.96	5.5883
84.98	5.5891
84.99	5.5897
85.00	5.5907
85.03	5.5915
85.05	5.5923
85.06	5.5929
85.08	5.5938
85.09	5.5946
85.11	5.5953
85.13	5.5962
85.14	5.5968
85.16	5.5976
85.17	5.5983
85.19	5.5989
85.20	5.5995
85.22	5.6003
85.24	5.6010
85.26	5.6016
85.28	5.6024
85.29	5.6027
85.30	5.6035
85.32	5.6041
85.34	5.6047
85.36	5.6056
85.38	5.6064
85.39	5.6071
85.41	5.6080
85.42	5.6088
85.44	5.6095
85.45	5.6102
85.48	5.6108
85.49	5.6115
85.51	5.6122
85.53	5.6130
85.54	5.6136
85.56	5.6145
85.58	5.6152
85.59	5.6159
85.61	5.6167
85.63	5.6176
85.64	5.6184
85.65	5.6192
85.67	5.6201
85.69	5.6208
85.71	5.6215
85.73	5.6223
85.74	5.6229
85.75	5.6236
85.77	5.6243
85.79	5.6249
85.80	5.6254
85.82	5.6261
85.84	5.6266
85.86	5.6273
85.88	5.6280
85.89	5.6288
85.90	5.6292
85.92	5.6300
85.94	5.6307
85.95	5.6314
85.97	5.6321
85.99	5.6326
86.00	5.6335
86.03	5.6341
86.04	5.6348
86.05	5.6355
86.08	5.6362
86.09	5.6369
86.11	5.6373
86.12	5.6380
86.14	5.6387
86.15	5.6395
86.17	5.6403
86.19	5.6412
86.21	5.6417
86.22	5.6425
86.23	5.6430
86.25	5.6435
86.27	5.6439
86.29	5.6446
86.30	5.6451
86.32	5.6456
86.34	5.6463
86.35	5.6467
86.37	5.6474
86.39	5.6482
86.40	5.6490
86.42	5.6497
86.44	5.6503
86.45	5.6510
86.47	5.6518
86.48	5.6526
86.50	5.6532
86.53	5.6539
86.54	5.6546
86.55	5.6552
86.57	5.6558
86.59	5.6566
86.60	5.6573
86.62	5.6580
86.64	5.6586
86.65	5.6593
86.67	5.6601
86.69	5.6609
86.70	5.6616
86.72	5.6625
86.74	5.6631
86.75	5.6638
86.77	5.6646
86.78	5.6654
86.80	5.6662
86.82	5.6667
86.83	5.6675
86.85	5.6681
86.87	5.6689
86.89	5.6697
86.90	5.6705
86.92	5.6714
86.93	5.6722
86.95	5.6731
86.97	5.6740
86.98	5.6749
87.00	5.6755
87.02	5.6763
87.04	5.6768
87.05	5.6776
87.07	5.6781
87.09	5.6787
87.10	5.6794
87.11	5.6803
87.13	5.6810
87.15	5.6818
87.17	5.6824
87.19	5.6833
87.20	5.6842
87.22	5.6849
87.23	5.6855
87.25	5.6863
87.27	5.6870
87.28	5.6876
87.30	5.6883
87.32	5.6890
87.33	5.6896
87.34	5.6899
87.36	5.6907
87.38	5.6913
87.40	5.6920
87.42	5.6926
87.43	5.6934
87.45	5.6942
87.47	5.6950
87.48	5.6958
87.50	5.6967
87.52	5.6977
87.53	5.6984
87.55	5.6992
87.57	5.7001
87.58	5.7009
87.60	5.7018
87.62	5.7024
87.63	5.7031
87.65	5.7040
87.67	5.7050
87.68	5.7057
87.70	5.7067
87.71	5.7075
87.73	5.7083
87.75	5.7093
87.77	5.7100
87.78	5.7107
87.80	5.7112
87.82	5.7120
87.83	5.7126
87.84	5.7131
87.87	5.7138
87.88	5.7143
87.90	5.7147
87.91	5.7156
87.93	5.7162
87.95	5.7168
87.96	5.7176
87.98	5.7181
88.00	5.7187
88.01	5.7193
88.03	5.7198
88.05	5.7204
88.07	5.7210
88.08	5.7216
88.10	5.7219
88.12	5.7227
88.13	5.7230
88.15	5.7236
88.17	5.7240
88.18	5.7246
88.20	5.7252
88.22	5.7259
88.23	5.7266
88.24	5.7272
88.26	5.7280
88.28	5.7286
88.30	5.7291
88.31	5.7298
88.33	5.7302
88.35	5.7310
88.36	5.7314
88.38	5.7322
88.40	5.7328
88.41	5.7333
88.43	5.7339
88.45	5.7346
88.46	5.7353
88.48	5.7359
88.50	5.7368
88.51	5.7375
88.53	5.7385
88.54	5.7394
88.56	5.7400
88.58	5.7408
88.59	5.7415
88.61	5.7422
88.63	5.7429
88.64	5.7437
88.66	5.7444
88.68	5.7453
88.70	5.7462
88.71	5.7470
88.73	5.7481
88.75	5.7490
88.76	5.7497
88.78	5.7505
88.80	5.7510
88.81	5.7516
88.83	5.7522
88.84	5.7529
88.86	5.7535
88.88	5.7543
88.89	5.7549
88.91	5.7557
88.93	5.7565
88.95	5.7573
88.96	5.7578
88.98	5.7589
89.00	5.7596
89.01	5.7605
89.03	5.7613
89.05	5.7620
89.06	5.7627
89.08	5.7635
89.09	5.7642
89.11	5.7650
89.13	5.7654
89.14	5.7660
89.16	5.7666
89.18	5.7673
89.19	5.7679
89.21	5.7687
89.23	5.7696
89.25	5.7706
89.26	5.7712
89.28	5.7719
89.29	5.7728
89.31	5.7735
89.33	5.7741
89.34	5.7749
89.36	5.7756
89.37	5.7761
89.39	5.7767
89.41	5.7773
89.42	5.7780
89.45	5.7787
89.46	5.7796
89.48	5.7805
89.50	5.7811
89.51	5.7818
89.52	5.7827
89.55	5.7833
89.56	5.7840
89.58	5.7850
89.59	5.7857
89.61	5.7864
89.63	5.7873
89.64	5.7882
89.66	5.7890
89.67	5.7899
89.69	5.7906
89.70	5.7919
89.73	5.7929
89.74	5.7938
89.75	5.7946
89.77	5.7954
89.79	5.7963
89.81	5.7971
89.83	5.7979
89.84	5.7987
89.86	5.7994
89.88	5.8003
89.89	5.8011
89.91	5.8018
89.92	5.8023
89.94	5.8030
89.95	5.8036
89.97	5.8043
89.99	5.8050
90.00	5.8056
90.03	5.8063
90.04	5.8068
90.06	5.8073
90.08	5.8080
90.09	5.8086
90.10	5.8092
90.12	5.8099
90.14	5.8103
90.15	5.8108
90.17	5.8114
90.18	5.8120
90.20	5.8126
90.23	5.8135
90.24	5.8144
90.25	5.8151
90.27	5.8159
90.29	5.8166
90.30	5.8170
90.32	5.8178
90.34	5.8185
90.35	5.8191
90.37	5.8199
90.39	5.8206
90.40	5.8212
90.42	5.8218
90.44	5.8225
90.45	5.8232
90.48	5.8242
90.49	5.8252
90.50	5.8259
90.52	5.8267
90.53	5.8276
90.55	5.8283
90.57	5.8289
90.59	5.8298
90.60	5.8302
90.62	5.8310
90.64	5.8318
90.65	5.8326
90.67	5.8333
90.68	5.8340
90.70	5.8348
90.72	5.8359
90.74	5.8369
90.75	5.8378
90.77	5.8390
90.78	5.8398
90.80	5.8406
90.82	5.8416
90.84	5.8425
90.85	5.8432
90.87	5.8440
90.88	5.8446
90.90	5.8453
90.92	5.8459
90.93	5.8467
90.95	5.8474
90.97	5.8480
90.98	5.8488
91.00	5.8496
91.02	5.8504
91.04	5.8513
91.05	5.8521
91.07	5.8528
91.09	5.8536
91.10	5.8543
91.12	5.8549
91.14	5.8557
91.15	5.8562
91.17	5.8568
91.18	5.8576
91.20	5.8584
91.22	5.8594
91.24	5.8600
91.25	5.8608
91.27	5.8617
91.28	5.8624
91.30	5.8632
91.32	5.8641
91.34	5.8650
91.36	5.8657
91.37	5.8664
91.38	5.8671
91.40	5.8675
91.42	5.8681
91.44	5.8687
91.45	5.8692
91.47	5.8700
91.49	5.8710
91.51	5.8716
91.52	5.8726
91.53	5.8733
91.55	5.8742
91.57	5.8748
91.59	5.8758
91.60	5.8766
91.62	5.8774
91.63	5.8781
91.65	5.8788
91.67	5.8796
91.68	5.8803
91.70	5.8808
91.72	5.8817
91.73	5.8824
91.75	5.8832
91.77	5.8839
91.78	5.8847
91.80	5.8854
91.82	5.8863
91.83	5.8870
91.85	5.8878
91.87	5.8886
91.89	5.8894
91.90	5.8902
91.92	5.8910
91.94	5.8917
91.95	5.8924
91.97	5.8932
91.98	5.8941
92.00	5.8950
92.02	5.8958
92.04	5.8968
92.06	5.8976
92.07	5.8985
92.09	5.8994
92.10	5.9001
92.12	5.9008
92.14	5.9014
92.15	5.9020
92.17	5.9027
92.18	5.9032
92.20	5.9038
92.22	5.9045
92.24	5.9053
92.25	5.9061
92.27	5.9069
92.28	5.9076
92.30	5.9085
92.32	5.9094
92.33	5.9101
92.35	5.9109
92.37	5.9118
92.38	5.9126
92.40	5.9133
92.41	5.9140
92.43	5.9145
92.45	5.9156
92.47	5.9165
92.49	5.9173
92.50	5.9183
92.52	5.9194
92.54	5.9205
92.55	5.9212
92.57	5.9221
92.58	5.9231
92.60	5.9238
92.62	5.9245
92.63	5.9256
92.65	5.9262
92.67	5.9270
92.68	5.9277
92.70	5.9283
92.72	5.9290
92.73	5.9299
92.75	5.9307
92.76	5.9315
92.78	5.9323
92.80	5.9329
92.82	5.9335
92.84	5.9344
92.85	5.9350
92.87	5.9356
92.88	5.9364
92.89	5.9372
92.91	5.9381
92.93	5.9387
92.95	5.9395
92.97	5.9400
92.98	5.9408
93.00	5.9416
93.02	5.9424
93.03	5.9431
93.05	5.9441
93.07	5.9448
93.08	5.9455
93.10	5.9460
93.12	5.9469
93.14	5.9475
93.15	5.9480
93.17	5.9487
93.19	5.9495
93.20	5.9501
93.22	5.9507
93.23	5.9516
93.25	5.9524
93.27	5.9534
93.29	5.9545
93.30	5.9552
93.32	5.9562
93.33	5.9569
93.34	5.9578
93.37	5.9585
93.39	5.9593
93.40	5.9600
93.42	5.9607
93.43	5.9614
93.45	5.9619
93.47	5.9626
93.48	5.9634
93.50	5.9637
93.51	5.9644
93.53	5.9651
93.55	5.9660
93.57	5.9667
93.58	5.9674
93.59	5.9680
93.61	5.9687
93.63	5.9692
93.64	5.9698
93.67	5.9705
93.68	5.9709
93.70	5.9716
93.72	5.9720
93.73	5.9725
93.75	5.9731
93.76	5.9739
93.78	5.9746
93.80	5.9751
93.81	5.9759
93.83	5.9767
93.84	5.9773
93.86	5.9780
93.88	5.9787
93.90	5.9796
93.91	5.9803
93.93	5.9810
93.95	5.9817
93.97	5.9824
93.98	5.9831
94.00	5.9840
94.01	5.9848
94.03	5.9857
94.05	5.9867
94.06	5.9877
94.08	5.9885
94.09	5.9893
94.11	5.9901
94.13	5.9906
94.14	5.9913
94.16	5.9920
94.18	5.9927
94.20	5.9934
94.21	5.9942
94.23	5.9949
94.25	5.9959
94.27	5.9968
94.28	5.9975
94.30	5.9985
94.31	5.9995
94.33	6.0003
94.34	6.0010
94.36	6.0018
94.38	6.0024
94.39	6.0031
94.42	6.0038
94.43	6.0045
94.45	6.0052
94.47	6.0058
94.48	6.0064
94.50	6.0070
94.51	6.0079
94.53	6.0086
94.55	6.0094
94.56	6.0103
94.58	6.0111
94.59	6.0119
94.61	6.0128
94.63	6.0135
94.64	6.0142
94.66	6.0151
94.68	6.0158
94.70	6.0166
94.71	6.0174
94.73	6.0181
94.75	6.0190
94.76	6.0200
94.78	6.0208
94.80	6.0219
94.81	6.0227
94.83	6.0234
94.84	6.0243
94.87	6.0252
94.88	6.0260
94.89	6.0268
94.91	6.0274
94.93	6.0278
94.95	6.0287
94.97	6.0291
94.98	6.0299
95.00	6.0305
95.01	6.0314
95.03	6.0322
95.05	6.0330
95.06	6.0338
95.08	6.0345
95.09	6.0355
95.11	6.0363
95.13	6.0370
95.14	6.0378
95.16	6.0387
95.18	6.0395
95.20	6.0403
95.21	6.0410
95.23	6.0418
95.25	6.0427
95.26	6.0435
95.28	6.0445
95.30	6.0456
95.31	6.0466
95.33	6.0473
95.35	6.0483
95.37	6.0494
95.38	6.0503
95.39	6.0512
95.41	6.0521
95.43	6.0528
95.45	6.0537
95.46	6.0544
95.48	6.0552
95.49	6.0560
95.51	6.0570
95.53	6.0578
95.55	6.0588
95.56	6.0599
95.58	6.0608
95.59	6.0618
95.61	6.0628
95.63	6.0637
95.64	6.0644
95.66	6.0652
95.67	6.0661
95.70	6.0669
95.71	6.0675
95.73	6.0681
95.75	6.0687
95.76	6.0696
95.78	6.0705
95.80	6.0714
95.81	6.0720
95.83	6.0731
95.84	6.0739
95.86	6.0745
95.88	6.0754
95.89	6.0763
95.91	6.0771
95.93	6.0779
95.95	6.0787
95.96	6.0794
95.98	6.0802
95.99	6.0809
96.01	6.0816
96.03	6.0824
96.05	6.0831
96.06	6.0837
96.07	6.0845
96.09	6.0854
96.11	6.0858
96.13	6.0864
96.14	6.0873
96.16	6.0880
96.17	6.0886
96.19	6.0892
96.21	6.0898
96.23	6.0903
96.24	6.0911
96.25	6.0917
96.27	6.0923
96.29	6.0932
96.31	6.0941
96.33	6.0950
96.34	6.0957
96.35	6.0966
96.38	6.0972
96.39	6.0980
96.41	6.0986
96.42	6.0990
96.44	6.0996
96.46	6.1000
96.48	6.1006
96.49	6.1011
96.50	6.1014
96.53	6.1018
96.54	6.1024
96.56	6.1030
96.58	6.1036
96.59	6.1040
96.61	6.1044
96.63	6.1050
96.64	6.1057
96.66	6.1061
96.68	6.1068
96.69	6.1075
96.71	6.1081
96.73	6.1088
96.74	6.1095
96.76	6.1102
96.78	6.1107
96.79	6.1117
96.80	6.1127
96.82	6.1136
96.84	6.1146
96.86	6.1156
96.88	6.1165
96.89	6.1173
96.91	6.1183
96.92	6.1192
96.94	6.1200
96.96	6.1208
96.98	6.1217
96.99	6.1225
97.01	6.1234
97.03	6.1243
97.04	6.1254
97.06	6.1264
97.08	6.1275
97.09	6.1286
97.11	6.1296
97.13	6.1303
97.14	6.1315
97.16	6.1324
97.17	6.1333
97.19	6.1342
97.21	6.1353
97.23	6.1363
97.24	6.1374
97.26	6.1383
97.28	6.1392
97.30	6.1402
97.31	6.1415
97.33	6.1426
97.34	6.1437
97.36	6.1447
97.38	6.1458
97.39	6.1468
97.41	6.1479
97.42	6.1488
97.44	6.1496
97.46	6.1506
97.48	6.1514
97.49	6.1523
97.51	6.1531
97.52	6.1539
97.54	6.1546
97.56	6.1556
97.58	6.1565
97.59	6.1574
97.61	6.1584
97.62	6.1592
97.64	6.1602
97.66	6.1610
97.67	6.1620
97.70	6.1631
97.71	6.1639
97.73	6.1647
97.74	6.1656
97.76	6.1665
97.78	6.1673
97.79	6.1682
97.81	6.1693
97.83	6.1704
97.84	6.1714
97.86	6.1723
97.88	6.1734
97.89	6.1742
97.91	6.1753
97.92	6.1762
97.94	6.1769
97.96	6.1777
97.98	6.1784
97.99	6.1792
98.01	6.1798
98.03	6.1806
98.04	6.1814
98.05	6.1823
98.07	6.1831
98.09	6.1840
98.11	6.1850
98.13	6.1859
98.14	6.1865
98.15	6.1875
98.17	6.1884
98.19	6.1895
98.20	6.1904
98.22	6.1912
98.24	6.1920
98.26	6.1929
98.27	6.1938
98.29	6.1945
98.31	6.1955
98.33	6.1963
98.34	6.1972
98.36	6.1981
98.38	6.1991
98.39	6.2000
98.41	6.2010
98.43	6.2016
98.44	6.2025
98.46	6.2030
98.47	6.2035
98.49	6.2041
98.51	6.2048
98.53	6.2053
98.54	6.2060
98.56	6.2065
98.58	6.2071
98.59	6.2077
98.60	6.2086
98.62	6.2093
98.64	6.2100
98.65	6.2107
98.67	6.2113
98.69	6.2121
98.71	6.2127
98.73	6.2135
98.74	6.2142
98.76	6.2149
98.77	6.2157
98.79	6.2166
98.80	6.2175
98.83	6.2183
98.84	6.2194
98.86	6.2203
98.88	6.2214
98.89	6.2223
98.90	6.2231
98.92	6.2239
98.94	6.2246
98.95	6.2254
98.97	6.2264
98.99	6.2272
99.00	6.2281
99.02	6.2290
99.04	6.2299
99.05	6.2307
99.07	6.2316
99.09	6.2327
99.10	6.2335
99.12	6.2345
99.14	6.2353
99.15	6.2362
99.17	6.2370
99.19	6.2376
99.21	6.2383
99.23	6.2390
99.24	6.2399
99.25	6.2405
99.27	6.2411
99.28	6.2418
99.30	6.2425
99.33	6.2434
99.34	6.2446
99.35	6.2455
99.38	6.2465
99.39	6.2475
99.40	6.2484
99.42	6.2491
99.44	6.2500
99.45	6.2506
99.47	6.2513
99.49	6.2521
99.50	6.2529
99.52	6.2538
99.54	6.2546
99.55	6.2553
99.57	6.2562
99.59	6.2572
99.61	6.2579
99.63	6.2587
99.64	6.2595
99.65	6.2603
99.67	6.2611
99.69	6.2620
99.70	6.2626
99.72	6.2634
99.74	6.2642
99.75	6.2647
99.78	6.2654
99.79	6.2661
99.80	6.2667
99.83	6.2674
99.84	6.2683
99.85	6.2689
99.87	6.2696
99.89	6.2705
99.90	6.2712
99.92	6.2720
99.94	6.2730
99.95	6.2737
99.97	6.2747
99.99	6.2756
100.00	6.2764
100.02	6.2772
100.04	6.2781
100.05	6.2791
100.07	6.2802
100.09	6.2812
100.10	6.2822
100.12	6.2831
100.14	6.2839
100.15	6.2846
100.17	6.2858
100.19	6.2866
100.20	6.2872
100.22	6.2879
100.24	6.2888
100.26	6.2896
100.28	6.2902
100.29	6.2911
100.31	6.2918
100.32	6.2926
100.34	6.2935
100.35	6.2942
100.37	6.2953
100.39	6.2964
100.41	6.2971
100.42	6.2978
100.43	6.2988
100.45	6.2996
100.48	6.3004
100.49	6.3012
100.50	6.3021
100.52	6.3029
100.54	6.3038
100.55	6.3045
100.57	6.3054
100.59	6.3064
100.60	6.3074
100.62	6.3081
100.64	6.3091
100.65	6.3100
100.67	6.3108
100.69	6.3116
100.70	6.3123
100.72	6.3132
100.74	6.3140
100.76	6.3147
100.77	6.3154
100.79	6.3163
100.80	6.3169
100.82	6.3177
100.84	6.3187
100.85	6.3196
100.87	6.3206
100.88	6.3215
100.90	6.3226
100.92	6.3236
100.94	6.3244
100.95	6.3250
100.97	6.3260
100.99	6.3267
101.01	6.3272
101.02	6.3280
101.04	6.3288
101.05	6.3298
101.07	6.3306
101.09	6.3316
101.10	6.3324
101.12	6.3331
101.14	6.3339
101.15	6.3348
101.17	6.3356
101.19	6.3366
101.20	6.3372
101.22	6.3380
101.24	6.3388
101.25	6.3397
101.27	6.3404
101.29	6.3410
101.30	6.3418
101.32	6.3425
101.33	6.3435
101.35	6.3441
101.37	6.3450
101.39	6.3459
101.41	6.3469
101.42	6.3477
101.44	6.3484
101.45	6.3491
101.48	6.3498
101.49	6.3506
101.51	6.3513
101.53	6.3520
101.54	6.3529
101.55	6.3539
101.57	6.3548
101.59	6.3558
101.60	6.3567
101.62	6.3578
101.64	6.3587
101.65	6.3596
101.67	6.3605
101.68	6.3614
101.70	6.3622
101.72	6.3632
101.73	6.3642
101.75	6.3650
101.77	6.3658
101.79	6.3667
101.80	6.3674
101.82	6.3682
101.84	6.3691
101.85	6.3698
101.87	6.3707
101.89	6.3718
101.90	6.3728
101.92	6.3736
101.94	6.3747
101.95	6.3755
101.97	6.3764
101.99	6.3774
102.00	6.3782
102.02	6.3792
102.04	6.3800
102.05	6.3807
102.07	6.3816
102.09	6.3826
102.10	6.3836
102.12	6.3847
102.14	6.3858
102.15	6.3867
102.17	6.3876
102.18	6.3885
102.20	6.3893
102.22	6.3902
102.24	6.3911
102.25	6.3916
102.27	6.3925
102.28	6.3932
102.30	6.3937
102.32	6.3947
102.33	6.3955
102.35	6.3963
102.37	6.3970
102.39	6.3979
102.40	6.3987
102.42	6.3997
102.43	6.4003
102.45	6.4009
102.47	6.4018
102.48	6.4025
102.50	6.4032
102.52	6.4040
102.54	6.4049
102.55	6.4054
102.57	6.4062
102.59	6.4071
102.60	6.4080
102.63	6.4090
102.64	6.4098
102.65	6.4107
102.67	6.4118
102.68	6.4127
102.70	6.4135
102.72	6.4143
102.74	6.4151
102.75	6.4158
102.77	6.4165
102.79	6.4175
102.80	6.4183
102.82	6.4190
102.84	6.4199
102.85	6.4204
102.87	6.4213
102.89	6.4221
102.90	6.4229
102.92	6.4236
102.94	6.4244
102.95	6.4251
102.97	6.4260
102.98	6.4268
103.00	6.4274
103.02	6.4283
103.03	6.4292
103.05	6.4300
103.07	6.4308
103.08	6.4315
103.10	6.4324
103.12	6.4333
103.13	6.4342
103.15	6.4353
103.17	6.4360
103.18	6.4370
103.20	6.4379
103.22	6.4386
103.23	6.4395
103.25	6.4404
103.27	6.4409
103.29	6.4420
103.30	6.4426
103.32	6.4434
103.34	6.4443
103.35	6.4453
103.37	6.4464
103.39	6.4473
103.40	6.4485
103.42	6.4494
103.43	6.4504
103.45	6.4510
103.47	6.4519
103.49	6.4528
103.51	6.4536
103.52	6.4546
103.54	6.4555
103.55	6.4563
103.57	6.4571
103.59	6.4581
103.60	6.4588
103.61	6.4596
103.63	6.4606
103.65	6.4614
103.67	6.4622
103.69	6.4630
103.71	6.4638
103.72	6.4646
103.73	6.4654
103.73	6.4663
103.74	6.4674
103.78	6.4680
103.80	6.4687
103.82	6.4695
103.83	6.4703
103.85	6.4712
103.87	6.4722
103.88	6.4730
103.90	6.4740
103.92	6.4750
103.93	6.4758
103.95	6.4768
103.97	6.4775
103.98	6.4781
104.00	6.4790
104.02	6.4799
104.03	6.4805
104.05	6.4814
104.07	6.4824
104.09	6.4831
104.10	6.4841
104.12	6.4849
104.13	6.4858
104.15	6.4867
104.17	6.4876
104.18	6.4883
104.20	6.4892
104.22	6.4902
104.23	6.4911
104.25	6.4920
104.27	6.4929
104.28	6.4936
104.30	6.4944
104.32	6.4952
104.33	6.4961
104.35	6.4969
104.37	6.4980
104.38	6.4991
104.40	6.5001
104.41	6.5012
104.43	6.5022
104.45	6.5034
104.47	6.5044
104.48	6.5053
104.50	6.5064
104.52	6.5074
104.53	6.5085
104.55	6.5096
104.57	6.5106
104.58	6.5113
104.60	6.5123
104.62	6.5133
104.64	6.5144
104.65	6.5155
104.67	6.5165
104.68	6.5174
104.70	6.5182
104.72	6.5192
104.73	6.5201
104.75	6.5209
104.77	6.5218
104.78	6.5224
104.80	6.5231
104.81	6.5240
104.83	6.5251
104.85	6.5260
104.87	6.5269
104.88	6.5276
104.90	6.5285
104.92	6.5294
104.93	6.5301
104.95	6.5308
104.97	6.5316
104.98	6.5323
104.99	6.5329
105.01	6.5339
105.03	6.5347
105.05	6.5357
105.07	6.5364
105.08	6.5370
105.10	6.5381
105.12	6.5392
105.13	6.5399
105.15	6.5407
105.17	6.5416
105.18	6.5425
105.20	6.5435
105.22	6.5444
105.24	6.5451
105.25	6.5459
105.27	6.5468
105.28	6.5476
105.30	6.5484
105.32	6.5493
105.33	6.5500
105.35	6.5510
105.37	6.5518
105.38	6.5527
105.40	6.5537
105.42	6.5546
105.43	6.5553
105.45	6.5562
105.47	6.5570
105.48	6.5578
105.50	6.5587
105.52	6.5597
105.53	6.5604
105.55	6.5610
105.57	6.5618
105.58	6.5626
105.60	6.5636
105.62	6.5645
105.63	6.5654
105.65	6.5663
105.67	6.5672
105.69	6.5681
105.70	6.5689
105.71	6.5699
105.73	6.5707
105.75	6.5716
105.77	6.5722
105.78	6.5729
105.80	6.5737
105.81	6.5745
105.83	6.5753
105.85	6.5762
105.86	6.5772
105.88	6.5783
105.90	6.5793
105.92	6.5804
105.93	6.5814
105.95	6.5823
105.96	6.5832
105.98	6.5839
106.00	6.5849
106.01	6.5858
106.03	6.5867
106.05	6.5877
106.07	6.5886
106.08	6.5894
106.10	6.5904
106.11	6.5915
106.13	6.5926
106.15	6.5936
106.17	6.5946
106.18	6.5957
106.20	6.5962
106.22	6.5971
106.23	6.5980
106.25	6.5989
106.27	6.5997
106.28	6.6005
106.30	6.6013
106.31	6.6023
106.33	6.6031
106.35	6.6040
106.36	6.6052
106.38	6.6063
106.40	6.6077
106.41	6.6087
106.43	6.6098
106.45	6.6109
106.46	6.6119
106.48	6.6133
106.50	6.6142
106.51	6.6152
106.53	6.6162
106.55	6.6173
106.56	6.6183
106.58	6.6192
106.60	6.6199
106.61	6.6211
106.63	6.6219
106.65	6.6231
106.67	6.6241
106.68	6.6250
106.70	6.6259
106.72	6.6269
106.73	6.6277
106.75	6.6287
106.77	6.6296
106.78	6.6303
106.79	6.6312
106.81	6.6322
106.83	6.6330
106.85	6.6339
106.86	6.6348
106.88	6.6357
106.90	6.6368
106.91	6.6378
106.93	6.6387
106.95	6.6396
106.96	6.6406
106.98	6.6414
107.00	6.6423
107.01	6.6433
107.03	6.6443
107.05	6.6451
107.06	6.6459
107.08	6.6465
107.10	6.6474
107.11	6.6484
107.13	6.6491
107.15	6.6502
107.16	6.6512
107.18	6.6520
107.20	6.6528
107.21	6.6538
107.23	6.6547
107.24	6.6557
107.26	6.6564
107.28	6.6571
107.30	6.6578
107.31	6.6584
107.33	6.6589
107.34	6.6597
107.36	6.6607
107.38	6.6616
107.40	6.6625
107.41	6.6633
107.43	6.6638
107.45	6.6647
107.46	6.6654
107.48	6.6662
107.50	6.6669
107.51	6.6676
107.53	6.6685
107.55	6.6695
107.56	6.6701
107.58	6.6708
107.60	6.6717
107.61	6.6728
107.63	6.6737
107.65	6.6747
107.66	6.6756
107.68	6.6764
107.69	6.6773
107.71	6.6781
107.73	6.6788
107.75	6.6797
107.76	6.6806
107.78	6.6815
107.80	6.6823
107.81	6.6832
107.83	6.6839
107.84	6.6848
107.86	6.6857
107.88	6.6867
107.89	6.6877
107.91	6.6888
107.93	6.6898
107.95	6.6905
107.96	6.6913
107.98	6.6924
107.99	6.6932
108.01	6.6942
108.03	6.6952
108.04	6.6960
108.06	6.6969
108.08	6.6975
108.10	6.6984
108.11	6.6992
108.13	6.6998
108.15	6.7010
108.16	6.7019
108.18	6.7026
108.20	6.7034
108.21	6.7045
108.23	6.7053
108.24	6.7059
108.26	6.7069
108.28	6.7076
108.29	6.7085
108.31	6.7094
108.33	6.7100
108.35	6.7109
108.36	6.7117
108.38	6.7126
108.40	6.7136
108.41	6.7145
108.43	6.7155
108.44	6.7164
108.46	6.7174
108.48	6.7185
108.49	6.7195
108.50	6.7205
108.52	6.7218
108.54	6.7227
108.56	6.7236
108.58	6.7246
108.60	6.7255
108.61	6.7264
108.63	6.7275
108.64	6.7283
108.65	6.7292
108.68	6.7302
108.69	6.7313
108.71	6.7323
108.73	6.7329
108.74	6.7340
108.76	6.7349
108.78	6.7357
108.80	6.7366
108.81	6.7375
108.83	6.7384
108.85	6.7392
108.86	6.7401
108.88	6.7411
108.89	6.7423
108.90	6.7433
108.92	6.7444
108.94	6.7453
108.96	6.7461
108.97	6.7468
109.00	6.7479
109.01	6.7487
109.02	6.7497
109.04	6.7505
109.06	6.7511
109.08	6.7521
109.09	6.7531
109.11	6.7538
109.13	6.7547
109.14	6.7556
109.16	6.7565
109.18	6.7575
109.19	6.7584
109.21	6.7594
109.23	6.7603
109.25	6.7615
109.26	6.7624
109.28	6.7630
109.29	6.7639
109.31	6.7646
109.33	6.7654
109.34	6.7662
109.36	6.7670
109.38	6.7680
109.39	6.7691
109.41	6.7700
109.43	6.7712
109.44	6.7719
109.45	6.7728
109.47	6.7736
109.49	6.7745
109.51	6.7754
109.53	6.7763
109.54	6.7771
109.56	6.7779
109.58	6.7788
109.60	6.7797
109.61	6.7806
109.63	6.7814
109.64	6.7823
109.66	6.7834
109.68	6.7844
109.70	6.7853
109.71	6.7862
109.73	6.7870
109.74	6.7879
109.76	6.7887
109.78	6.7895
109.79	6.7904
109.81	6.7912
109.83	6.7919
109.84	6.7928
109.86	6.7938
109.88	6.7946
109.90	6.7956
109.91	6.7968
109.93	6.7978
109.95	6.7989
109.96	6.7998
109.98	6.8008
109.99	6.8018
110.01	6.8028
110.03	6.8038
110.04	6.8047
110.06	6.8054
110.08	6.8062
110.09	6.8070
110.11	6.8077
110.13	6.8086
110.14	6.8094
110.16	6.8104
110.18	6.8112
110.19	6.8121
110.21	6.8129
110.23	6.8139
110.25	6.8148
110.26	6.8154
110.28	6.8163
110.30	6.8171
110.31	6.8178
110.33	6.8186
110.34	6.8195
110.36	6.8204
110.38	6.8212
110.40	6.8221
110.41	6.8226
110.43	6.8236
110.45	6.8245
110.46	6.8253
110.48	6.8264
110.49	6.8274
110.51	6.8283
110.53	6.8291
110.54	6.8302
110.56	6.8310
110.58	6.8318
110.59	6.8326
110.61	6.8332
110.63	6.8341
110.65	6.8350
110.66	6.8357
110.68	6.8368
110.69	6.8380
110.71	6.8386
110.73	6.8398
110.75	6.8407
110.76	6.8416
110.78	6.8427
110.79	6.8436
110.81	6.8445
110.82	6.8454
110.84	6.8462
110.86	6.8473
110.88	6.8484
110.90	6.8494
110.91	6.8506
110.93	6.8517
110.94	6.8527
110.96	6.8537
110.98	6.8546
111.00	6.8556
111.01	6.8565
111.03	6.8574
111.04	6.8583
111.06	6.8591
111.08	6.8600
111.09	6.8608
111.11	6.8619
111.13	6.8629
111.14	6.8640
111.16	6.8650
111.17	6.8661
111.19	6.8672
111.21	6.8682
111.23	6.8692
111.24	6.8703
111.26	6.8711
111.28	6.8718
111.30	6.8727
111.31	6.8733
111.33	6.8742
111.34	6.8753
111.36	6.8760
111.38	6.8772
111.39	6.8782
111.41	6.8792
111.43	6.8805
111.44	6.8815
111.46	6.8823
111.48	6.8833
111.50	6.8843
111.51	6.8852
111.53	6.8860
111.54	6.8869
111.56	6.8878
111.58	6.8885
111.59	6.8893
111.61	6.8902
111.63	6.8911
111.65	6.8923
111.66	6.8932
111.68	6.8941
111.69	6.8952
111.71	6.8959
111.73	6.8968
111.75	6.8979
111.76	6.8988
111.78	6.8997
111.80	6.9004
111.81	6.9012
111.83	6.9022
111.84	6.9032
111.86	6.9039
111.88	6.9048
111.89	6.9058
111.91	6.9068
111.93	6.9077
111.94	6.9086
111.96	6.9094
111.98	6.9101
111.99	6.9110
112.01	6.9115
112.03	6.9124
112.04	6.9133
112.06	6.9140
112.08	6.9150
112.09	6.9157
112.11	6.9167
112.13	6.9177
112.14	6.9189
112.16	6.9201
112.18	6.9209
112.20	6.9218
112.21	6.9228
112.23	6.9237
112.24	6.9248
112.26	6.9257
112.28	6.9265
112.29	6.9275
112.30	6.9283
112.33	6.9291
112.34	6.9301
112.36	6.9310
112.38	6.9320
112.40	6.9330
112.41	6.9340
112.43	6.9350
112.44	6.9359
112.46	6.9367
112.48	6.9375
112.49	6.9387
112.51	6.9395
112.53	6.9405
112.55	6.9413
112.56	6.9421
112.58	6.9429
112.60	6.9436
112.61	6.9447
112.63	6.9456
112.64	6.9464
112.66	6.9475
112.68	6.9484
112.69	6.9495
112.70	6.9505
112.73	6.9516
112.74	6.9526
112.75	6.9535
112.78	6.9544
112.79	6.9552
112.81	6.9561
112.83	6.9570
112.84	6.9581
112.86	6.9591
112.88	6.9602
112.89	6.9614
112.90	6.9625
112.93	6.9636
112.94	6.9645
112.96	6.9655
112.98	6.9663
112.99	6.9669
113.00	6.9678
113.03	6.9686
113.04	6.9695
113.06	6.9703
113.07	6.9712
113.09	6.9723
113.10	6.9732
113.12	6.9742
113.14	6.9751
113.16	6.9760
113.18	6.9771
113.20	6.9782
113.21	6.9792
113.23	6.9802
113.24	6.9812
113.26	6.9820
113.28	6.9829
113.30	6.9838
113.31	6.9845
113.33	6.9858
113.34	6.9867
113.36	6.9876
113.37	6.9886
113.39	6.9896
113.41	6.9904
113.43	6.9913
113.44	6.9925
113.46	6.9933
113.48	6.9945
113.49	6.9954
113.51	6.9962
113.53	6.9972
113.54	6.9982
113.55	6.9990
113.58	6.9999
113.59	7.0008
113.60	7.0018
113.63	7.0026
113.64	7.0037
113.66	7.0045
113.68	7.0054
113.69	7.0063
113.70	7.0071
113.72	7.0082
113.74	7.0089
113.75	7.0099
113.78	7.0107
113.79	7.0114
113.80	7.0121
113.83	7.0129
113.84	7.0138
113.85	7.0146
113.87	7.0156
113.89	7.0165
113.90	7.0173
113.93	7.0181
113.94	7.0189
113.96	7.0199
113.98	7.0205
113.99	7.0213
114.01	7.0222
114.03	7.0229
114.04	7.0239
114.05	7.0249
114.08	7.0259
114.09	7.0267
114.11	7.0279
114.13	7.0288
114.14	7.0300
114.16	7.0309
114.17	7.0320
114.19	7.0331
114.21	7.0340
114.23	7.0350
114.24	7.0358
114.26	7.0367
114.28	7.0377
114.29	7.0386
114.31	7.0397
114.33	7.0407
114.34	7.0418
114.35	7.0431
114.37	7.0444
114.39	7.0455
114.41	7.0467
114.42	7.0477
114.44	7.0489
114.46	7.0500
114.47	7.0510
114.49	7.0519
114.50	7.0527
114.52	7.0539
114.54	7.0549
114.56	7.0560
114.58	7.0569
114.59	7.0579
114.60	7.0588
114.62	7.0599
114.63	7.0608
114.65	7.0620
114.67	7.0629
114.69	7.0639
114.71	7.0647
114.72	7.0656
114.74	7.0666
114.76	7.0674
114.78	7.0683
114.80	7.0691
114.81	7.0702
114.83	7.0710
114.85	7.0720
114.86	7.0730
114.88	7.0738
114.89	7.0749
114.91	7.0759
114.93	7.0770
114.94	7.0776
114.95	7.0788
114.97	7.0796
114.99	7.0805
115.01	7.0814
115.03	7.0823
115.04	7.0830
115.05	7.0839
115.07	7.0848
115.09	7.0857
115.10	7.0868
115.12	7.0877
115.14	7.0889
115.15	7.0899
115.17	7.0911
115.19	7.0921
115.21	7.0931
115.23	7.0942
115.24	7.0951
115.25	7.0961
115.27	7.0970
115.28	7.0977
115.30	7.0986
115.32	7.0994
115.34	7.1003
115.35	7.1015
115.37	7.1028
115.39	7.1040
115.40	7.1051
115.42	7.1064
115.44	7.1073
115.45	7.1083
115.47	7.1093
115.49	7.1105
115.50	7.1116
115.52	7.1127
115.54	7.1136
115.55	7.1145
115.57	7.1154
115.59	7.1165
115.60	7.1174
115.62	7.1184
115.64	7.1197
115.65	7.1206
115.67	7.1217
115.69	7.1227
115.70	7.1237
115.72	7.1247
115.74	7.1256
115.76	7.1263
115.77	7.1273
115.79	7.1281
115.80	7.1292
115.82	7.1303
115.84	7.1313
115.85	7.1322
115.87	7.1336
115.89	7.1346
115.90	7.1358
115.92	7.1366
115.94	7.1375
115.95	7.1384
115.97	7.1393
115.99	7.1404
116.01	7.1412
116.03	7.1420
116.04	7.1431
116.06	7.1440
116.07	7.1449
116.09	7.1458
116.10	7.1466
116.12	7.1477
116.14	7.1487
116.16	7.1497
116.18	7.1505
116.19	7.1513
116.21	7.1523
116.23	7.1533
116.24	7.1542
116.25	7.1550
116.27	7.1560
116.29	7.1567
116.31	7.1576
116.32	7.1585
116.34	7.1591
116.35	7.1603
116.37	7.1615
116.39	7.1625
116.40	7.1637
116.42	7.1647
116.44	7.1659
116.45	7.1671
116.48	7.1683
116.49	7.1693
116.50	7.1704
116.52	7.1712
116.54	7.1721
116.55	7.1731
116.58	7.1738
116.59	7.1749
116.60	7.1759
116.62	7.1768
116.64	7.1779
116.65	7.1790
116.67	7.1802
116.69	7.1810
116.70	7.1821
116.72	7.1830
116.74	7.1840
116.76	7.1849
116.78	7.1859
116.79	7.1867
116.80	7.1876
116.82	7.1885
116.83	7.1893
116.85	7.1904
116.87	7.1916
116.88	7.1924
116.90	7.1936
116.92	7.1945
116.94	7.1955
116.95	7.1963
116.97	7.1973
116.99	7.1984
117.00	7.1994
117.02	7.2005
117.04	7.2015
117.05	7.2023
117.07	7.2033
117.09	7.2042
117.10	7.2053
117.12	7.2063
117.13	7.2072
117.15	7.2082
117.17	7.2094
117.19	7.2102
117.20	7.2113
117.23	7.2124
117.24	7.2134
117.25	7.2145
117.27	7.2154
117.28	7.2162
117.30	7.2172
117.32	7.2183
117.34	7.2194
117.35	7.2206
117.37	7.2216
117.39	7.2227
117.40	7.2239
117.42	7.2249
117.44	7.2258
117.45	7.2268
117.47	7.2278
117.49	7.2286
117.50	7.2296
117.52	7.2308
117.54	7.2317
117.55	7.2329
117.58	7.2337
117.59	7.2348
117.60	7.2358
117.62	7.2370
117.63	7.2382
117.65	7.2392
117.67	7.2402
117.69	7.2412
117.70	7.2422
117.72	7.2433
117.74	7.2441
117.75	7.2450
117.77	7.2459
117.78	7.2471
117.80	7.2482
117.82	7.2491
117.83	7.2502
117.85	7.2514
117.87	7.2525
117.88	7.2535
117.90	7.2546
117.92	7.2557
117.94	7.2566
117.95	7.2575
117.97	7.2585
117.98	7.2592
118.00	7.2602
118.02	7.2611
118.03	7.2620
118.05	7.2628
118.07	7.2638
118.08	7.2649
118.10	7.2658
118.12	7.2670
118.14	7.2680
118.15	7.2691
118.17	7.2699
118.18	7.2708
118.20	7.2719
118.22	7.2730
118.23	7.2738
118.25	7.2747
118.27	7.2754
118.29	7.2764
118.30	7.2772
118.32	7.2783
118.33	7.2792
118.35	7.2801
118.37	7.2811
118.38	7.2820
118.40	7.2832
118.42	7.2841
118.43	7.2849
118.45	7.2857
118.47	7.2867
118.48	7.2877
118.50	7.2883
118.52	7.2893
118.53	7.2902
118.55	7.2909
118.57	7.2917
118.59	7.2926
118.60	7.2936
118.62	7.2947
118.64	7.2956
118.65	7.2968
118.67	7.2978
118.68	7.2989
118.70	7.3001
118.71	7.3011
118.73	7.3021
118.75	7.3030
118.77	7.3041
118.78	7.3048
118.80	7.3058
118.82	7.3068
118.83	7.3076
118.85	7.3088
118.87	7.3098
118.88	7.3106
118.90	7.3119
118.92	7.3130
118.93	7.3141
118.95	7.3150
118.96	7.3160
118.98	7.3169
119.00	7.3180
119.02	7.3190
119.03	7.3198
119.05	7.3207
119.07	7.3217
119.08	7.3229
119.10	7.3240
119.12	7.3251
119.14	7.3262
119.15	7.3273
119.17	7.3284
119.19	7.3294
119.20	7.3303
119.22	7.3314
119.24	7.3322
119.25	7.3332
119.27	7.3340
119.28	7.3348
119.30	7.3360
119.32	7.3368
119.33	7.3377
119.35	7.3390
119.37	7.3398
119.39	7.3413
119.40	7.3424
119.42	7.3435
119.43	7.3445
119.45	7.3456
119.47	7.3467
119.49	7.3476
119.50	7.3487
119.52	7.3495
119.53	7.3505
119.55	7.3515
119.57	7.3524
119.59	7.3536
119.60	7.3546
119.62	7.3557
119.63	7.3568
119.65	7.3580
119.67	7.3592
119.68	7.3604
119.70	7.3613
119.72	7.3623
119.73	7.3633
119.75	7.3645
119.77	7.3656
119.78	7.3667
119.80	7.3679
119.82	7.3690
119.83	7.3701
119.85	7.3713
119.87	7.3724
119.88	7.3737
119.90	7.3748
119.92	7.3761
119.93	7.3771
119.95	7.3782
119.97	7.3793
119.98	7.3805
120.00	7.3817
120.02	7.3826
120.04	7.3838
120.05	7.3847
120.07	7.3860
120.09	7.3873
120.10	7.3885
120.12	7.3894
120.14	7.3905
120.15	7.3919
120.17	7.3929
120.18	7.3939
120.20	7.3950
120.22	7.3961
120.24	7.3971
120.25	7.3981
120.27	7.3989
120.28	7.4000
120.30	7.4009
120.32	7.4021
120.33	7.4033
120.35	7.4048
120.37	7.4059
120.38	7.4071
120.40	7.4081
120.42	7.4092
120.44	7.4101
120.45	7.4110
120.47	7.4122
120.49	7.4132
120.50	7.4142
120.50	7.4153
120.51	7.4163
120.54	7.4176
120.57	7.4186
120.59	7.4196
120.60	7.4205
120.62	7.4216
120.63	7.4226
120.65	7.4237
120.67	7.4248
120.69	7.4259
120.70	7.4269
120.72	7.4280
120.73	7.4289
120.75	7.4298
120.77	7.4306
120.78	7.4314
120.80	7.4323
120.82	7.4332
120.83	7.4344
120.85	7.4356
120.87	7.4367
120.88	7.4379
120.90	7.4390
120.92	7.4400
120.94	7.4408
120.95	7.4420
120.97	7.4429
120.99	7.4439
121.00	7.4451
121.02	7.4459
121.04	7.4468
121.05	7.4478
121.06	7.4489
121.08	7.4502
121.10	7.4512
121.12	7.4523
121.14	7.4534
121.15	7.4544
121.17	7.4555
121.19	7.4565
121.21	7.4576
121.22	7.4586
121.23	7.4596
121.25	7.4606
121.27	7.4615
121.29	7.4625
121.30	7.4635
121.32	7.4647
121.34	7.4658
121.35	7.4668
121.37	7.4680
121.39	7.4692
121.40	7.4700
121.42	7.4708
121.44	7.4716
121.45	7.4726
121.47	7.4736
121.48	7.4748
121.50	7.4758
121.52	7.4766
121.53	7.4778
121.55	7.4788
121.57	7.4798
121.59	7.4808
121.60	7.4820
121.62	7.4831
121.63	7.4841
121.65	7.4852
121.67	7.4864
121.68	7.4873
121.70	7.4882
121.72	7.4893
121.73	7.4905
121.75	7.4915
121.77	7.4927
121.79	7.4936
121.80	7.4947
121.82	7.4957
121.83	7.4968
121.85	7.4979
121.87	7.4989
121.89	7.5001
121.90	7.5014
121.92	7.5023
121.93	7.5034
121.95	7.5044
121.97	7.5053
121.98	7.5062
122.00	7.5073
122.02	7.5083
122.03	7.5094
122.05	7.5105
122.07	7.5117
122.09	7.5128
122.10	7.5138
122.12	7.5148
122.13	7.5161
122.15	7.5172
122.17	7.5184
122.18	7.5194
122.20	7.5205
122.22	7.5216
122.24	7.5224
122.25	7.5234
122.27	7.5244
122.28	7.5256
122.30	7.5269
122.32	7.5281
122.33	7.5293
122.35	7.5305
122.37	7.5316
122.39	7.5329
122.40	7.5339
122.42	7.5350
122.44	7.5359
122.45	7.5368
122.47	7.5377
122.49	7.5387
122.50	7.5396
122.52	7.5406
122.54	7.5419
122.55	7.5430
122.57	7.5440
122.58	7.5452
122.60	7.5462
122.61	7.5472
122.63	7.5483
122.65	7.5495
122.67	7.5504
122.68	7.5512
122.70	7.5523
122.72	7.5529
122.73	7.5539
122.75	7.5548
122.77	7.5558
122.78	7.5570
122.80	7.5582
122.82	7.5592
122.83	7.5605
122.85	7.5615
122.87	7.5627
122.88	7.5637
122.90	7.5648
122.92	7.5660
122.93	7.5671
122.95	7.5682
122.97	7.5690
122.98	7.5700
123.00	7.5709
123.02	7.5720
123.03	7.5731
123.05	7.5741
123.07	7.5753
123.09	7.5764
123.10	7.5776
123.12	7.5787
123.13	7.5798
123.15	7.5809
123.17	7.5819
123.19	7.5831
123.20	7.5841
123.22	7.5852
123.23	7.5862
123.25	7.5874
123.27	7.5885
123.29	7.5896
123.30	7.5909
123.32	7.5920
123.33	7.5931
123.35	7.5943
123.37	7.5956
123.38	7.5968
123.40	7.5981
123.42	7.5990
123.43	7.6001
123.45	7.6014
123.47	7.6022
123.48	7.6035
123.50	7.6045
123.52	7.6057
123.53	7.6068
123.55	7.6078
123.57	7.6089
123.58	7.6102
123.60	7.6112
123.62	7.6122
123.63	7.6132
123.65	7.6144
123.66	7.6155
123.68	7.6165
123.70	7.6177
123.72	7.6188
123.73	7.6199
123.75	7.6209
123.77	7.6219
123.78	7.6232
123.80	7.6244
123.82	7.6254
123.84	7.6268
123.85	7.6279
123.87	7.6290
123.88	7.6300
123.90	7.6311
123.92	7.6324
123.93	7.6335
123.95	7.6345
123.97	7.6351
123.99	7.6358
124.00	7.6369
124.02	7.6382
124.03	7.6391
124.05	7.6402
124.06	7.6413
124.08	7.6421
124.10	7.6431
124.12	7.6440
124.13	7.6452
124.15	7.6462
124.17	7.6474
124.18	7.6485
124.20	7.6493
124.22	7.6503
124.23	7.6514
124.25	7.6526
124.27	7.6537
124.28	7.6550
124.30	7.6561
124.32	7.6572
124.33	7.6585
124.35	7.6596
124.37	7.6607
124.38	7.6619
124.40	7.6627
124.41	7.6637
124.43	7.6647
124.45	7.6658
124.47	7.6669
124.48	7.6677
124.50	7.6688
124.52	7.6698
124.53	7.6713
124.55	7.6725
124.56	7.6737
124.58	7.6748
124.60	7.6758
124.61	7.6768
124.63	7.6780
124.65	7.6790
124.67	7.6802
124.68	7.6811
124.70	7.6820
124.72	7.6831
124.73	7.6839
124.75	7.6849
124.76	7.6860
124.78	7.6870
124.80	7.6879
124.82	7.6893
124.83	7.6904
124.85	7.6915
124.87	7.6926
124.88	7.6935
124.90	7.6946
124.92	7.6956
124.93	7.6965
124.95	7.6974
124.96	7.6984
124.98	7.6992
125.00	7.7003
125.01	7.7014
125.03	7.7026
125.05	7.7038
125.06	7.7049
125.08	7.7059
125.10	7.7071
125.11	7.7083
125.13	7.7094
125.15	7.7104
125.16	7.7115
125.18	7.7125
125.20	7.7135
125.21	7.7146
125.23	7.7155
125.25	7.7165
125.26	7.7175
125.28	7.7190
125.30	7.7198
125.31	7.7211
125.33	7.7224
125.35	7.7235
125.36	7.7246
125.38	7.7259
125.40	7.7268
125.42	7.7278
125.43	7.7290
125.45	7.7299
125.46	7.7310
125.48	7.7323
125.50	7.7335
125.51	7.7346
125.53	7.7358
125.55	7.7368
125.56	7.7380
125.58	7.7392
125.60	7.7404
125.62	7.7413
125.63	7.7425
125.65	7.7435
125.66	7.7446
125.68	7.7457
125.69	7.7465
125.72	7.7476
125.73	7.7486
125.75	7.7498
125.77	7.7510
125.78	7.7521
125.80	7.7534
125.81	7.7545
125.83	7.7557
125.85	7.7568
125.86	7.7580
125.88	7.7592
125.90	7.7602
125.92	7.7612
125.93	7.7623
125.95	7.7635
125.96	7.7645
125.98	7.7656
126.00	7.7668
126.02	7.7681
126.03	7.7694
126.05	7.7706
126.07	7.7715
126.08	7.7729
126.10	7.7740
126.12	7.7751
126.13	7.7762
126.15	7.7772
126.16	7.7784
126.18	7.7795
126.20	7.7805
126.21	7.7816
126.23	7.7827
126.25	7.7840
126.27	7.7855
126.28	7.7867
126.30	7.7878
126.31	7.7890
126.33	7.7904
126.34	7.7914
126.36	7.7925
126.38	7.7938
126.39	7.7949
126.41	7.7960
126.43	7.7970
126.44	7.7979
126.46	7.7989
126.48	7.8002
126.50	7.8011
126.51	7.8023
126.53	7.8036
126.54	7.8045
126.56	7.8055
126.58	7.8068
126.59	7.8078
126.61	7.8088
126.63	7.8100
126.65	7.8111
126.66	7.8122
126.68	7.8133
126.70	7.8143
126.71	7.8153
126.73	7.8165
126.74	7.8177
126.76	7.8188
126.77	7.8200
126.79	7.8210
126.81	7.8222
126.83	7.8234
126.85	7.8244
126.86	7.8257
126.88	7.8268
126.90	7.8280
126.91	7.8291
126.93	7.8302
126.95	7.8312
126.96	7.8322
126.97	7.8333
126.99	7.8345
127.01	7.8357
127.03	7.8367
127.04	7.8378
127.06	7.8390
127.08	7.8401
127.09	7.8413
127.11	7.8425
127.12	7.8435
127.14	7.8447
127.15	7.8457
127.18	7.8467
127.20	7.8475
127.21	7.8486
127.23	7.8498
127.24	7.8510
127.26	7.8521
127.28	7.8530
127.30	7.8542
127.31	7.8552
127.33	7.8562
127.35	7.8572
127.37	7.8583
127.38	7.8593
127.40	7.8602
127.41	7.8614
127.43	7.8625
127.45	7.8635
127.46	7.8643
127.48	7.8654
127.50	7.8665
127.51	7.8674
127.53	7.8687
127.54	7.8699
127.56	7.8711
127.58	7.8721
127.60	7.8733
127.61	7.8744
127.63	7.8756
127.65	7.8766
127.66	7.8778
127.68	7.8790
127.70	7.8801
127.71	7.8812
127.73	7.8824
127.75	7.8836
127.76	7.8848
127.78	7.8861
127.80	7.8871
127.81	7.8882
127.83	7.8892
127.85	7.8902
127.86	7.8915
127.88	7.8925
127.90	7.8937
127.91	7.8950
127.92	7.8961
127.94	7.8973
127.96	7.8985
127.98	7.9000
128.00	7.9012
128.01	7.9027
128.03	7.9039
128.05	7.9051
128.06	7.9066
128.07	7.9075
128.09	7.9086
128.11	7.9098
128.13	7.9110
128.14	7.9121
128.16	7.9133
128.18	7.9145
128.19	7.9154
128.21	7.9165
128.23	7.9177
128.25	7.9190
128.26	7.9203
128.28	7.9213
128.30	7.9224
128.31	7.9236
128.32	7.9246
128.35	7.9258
128.36	7.9269
128.38	7.9282
128.39	7.9293
128.41	7.9303
128.43	7.9315
128.44	7.9327
128.46	7.9340
128.48	7.9351
128.50	7.9364
128.51	7.9376
128.53	7.9390
128.54	7.9402
128.55	7.9414
128.57	7.9427
128.59	7.9437
128.61	7.9450
128.63	7.9462
128.64	7.9474
128.66	7.9487
128.68	7.9499
128.69	7.9510
128.71	7.9522
128.73	7.9537
128.75	7.9549
128.76	7.9560
128.78	7.9572
128.80	7.9583
128.81	7.9596
128.83	7.9609
128.85	7.9620
128.86	7.9632
128.88	7.9643
128.89	7.9654
128.91	7.9664
128.93	7.9676
128.94	7.9686
128.96	7.9698
128.97	7.9710
128.99	7.9720
129.01	7.9734
129.03	7.9743
129.04	7.9753
129.06	7.9761
129.08	7.9769
129.09	7.9779
129.11	7.9791
129.13	7.9800
129.15	7.9811
129.16	7.9820
129.18	7.9832
129.19	7.9844
129.21	7.9856
129.22	7.9867
129.24	7.9878
129.26	7.9890
129.28	7.9900
129.30	7.9913
129.31	7.9923
129.33	7.9933
129.35	7.9945
129.36	7.9955
129.38	7.9965
129.40	7.9976
129.41	7.9988
129.43	7.9998
129.44	8.0010
129.46	8.0022
129.47	8.0033
129.49	8.0045
129.51	8.0056
129.53	8.0068
129.55	8.0081
129.56	8.0093
129.58	8.0104
129.60	8.0115
129.61	8.0127
129.63	8.0139
129.64	8.0152
129.66	8.0163
129.68	8.0174
129.69	8.0186
129.71	8.0199
129.72	8.0211
129.74	8.0221
129.76	8.0235
129.78	8.0246
129.79	8.0259
129.81	8.0270
129.83	8.0282
129.85	8.0293
129.86	8.0306
129.88	8.0316
129.90	8.0328
129.91	8.0341
129.93	8.0351
129.95	8.0364
129.96	8.0375
129.97	8.0387
129.99	8.0398
130.01	8.0412
130.03	8.0423
130.04	8.0436
130.06	8.0448
130.07	8.0460
130.09	8.0470
130.11	8.0482
130.13	8.0494
130.15	8.0506
130.17	8.0518
130.18	8.0529
130.19	8.0543
130.21	8.0555
130.22	8.0567
130.24	8.0581
130.26	8.0594
130.28	8.0606
130.30	8.0619
130.31	8.0633
130.33	8.0645
130.35	8.0660
130.36	8.0670
130.38	8.0680
130.40	8.0691
130.41	8.0704
130.43	8.0714
130.44	8.0724
130.46	8.0738
130.47	8.0749
130.50	8.0763
130.51	8.0775
130.53	8.0789
130.55	8.0802
130.56	8.0814
130.58	8.0826
130.60	8.0839
130.61	8.0849
130.63	8.0859
130.65	8.0871
130.66	8.0883
130.68	8.0896
130.69	8.0908
130.71	8.0921
130.73	8.0934
130.75	8.0945
130.76	8.0957
130.78	8.0966
130.80	8.0979
130.82	8.0993
130.83	8.1004
130.85	8.1016
130.86	8.1026
130.88	8.1037
130.90	8.1048
130.91	8.1063
130.93	8.1075
130.94	8.1087
130.96	8.1100
130.97	8.1113
131.00	8.1127
131.01	8.1140
131.03	8.1151
131.04	8.1164
131.06	8.1175
131.08	8.1186
131.10	8.1198
131.11	8.1208
131.13	8.1218
131.14	8.1232
131.16	8.1246
131.18	8.1257
131.19	8.1269
131.22	8.1282
131.23	8.1296
131.25	8.1308
131.26	8.1320
131.28	8.1333
131.29	8.1345
131.31	8.1356
131.33	8.1367
131.35	8.1380
131.37	8.1392
131.38	8.1404
131.40	8.1416
131.41	8.1428
131.43	8.1442
131.44	8.1456
131.46	8.1466
131.48	8.1480
131.50	8.1494
131.51	8.1508
131.53	8.1517
131.54	8.1530
131.56	8.1542
131.58	8.1553
131.60	8.1566
131.61	8.1578
131.63	8.1590
131.64	8.1604
131.66	8.1619
131.68	8.1631
131.69	8.1646
131.72	8.1658
131.73	8.1669
131.75	8.1683
131.76	8.1697
131.78	8.1707
131.80	8.1720
131.82	8.1731
131.83	8.1742
131.85	8.1755
131.86	8.1767
131.88	8.1778
131.90	8.1790
131.91	8.1804
131.93	8.1815
131.94	8.1828
131.96	8.1841
131.98	8.1852
132.00	8.1862
132.02	8.1875
132.03	8.1885
132.05	8.1898
132.06	8.1909
132.08	8.1921
132.10	8.1929
132.11	8.1942
132.13	8.1953
132.15	8.1967
132.16	8.1979
132.18	8.1989
132.19	8.2003
132.21	8.2016
132.23	8.2027
132.25	8.2040
132.27	8.2053
132.28	8.2064
132.30	8.2076
132.31	8.2087
132.33	8.2098
132.35	8.2111
132.36	8.2124
132.38	8.2134
132.40	8.2147
132.41	8.2160
132.43	8.2174
132.44	8.2188
132.47	8.2202
132.48	8.2212
132.50	8.2226
132.51	8.2238
132.53	8.2249
132.54	8.2262
132.56	8.2276
132.58	8.2287
132.60	8.2296
132.61	8.2308
132.63	8.2319
132.65	8.2332
132.67	8.2345
132.68	8.2358
132.69	8.2370
132.71	8.2385
132.73	8.2396
132.75	8.2411
132.76	8.2424
132.78	8.2434
132.80	8.2446
132.81	8.2458
132.83	8.2468
132.85	8.2477
132.87	8.2488
132.88	8.2499
132.89	8.2511
132.91	8.2523
132.93	8.2536
132.94	8.2548
132.96	8.2559
132.98	8.2570
133.00	8.2582
133.01	8.2593
133.03	8.2604
133.04	8.2617
133.06	8.2629
133.08	8.2640
133.10	8.2652
133.11	8.2665
133.13	8.2678
133.14	8.2692
133.16	8.2706
133.18	8.2719
133.19	8.2731
133.22	8.2743
133.22	8.2755
133.24	8.2769
133.26	8.2783
133.28	8.2795
133.30	8.2807
133.31	8.2821
133.33	8.2833
133.35	8.2844
133.36	8.2858
133.38	8.2871
133.40	8.2884
133.41	8.2897
133.43	8.2909
133.44	8.2922
133.46	8.2936
133.47	8.2948
133.50	8.2961
133.51	8.2974
133.53	8.2987
133.55	8.3002
133.56	8.3014
133.58	8.3027
133.60	8.3039
133.61	8.3055
133.63	8.3067
133.65	8.3080
133.66	8.3095
133.68	8.3107
133.69	8.3120
133.71	8.3133
133.73	8.3145
133.75	8.3158
133.76	8.3171
133.78	8.3182
133.80	8.3195
133.81	8.3207
133.83	8.3220
133.84	8.3233
133.86	8.3247
133.88	8.3260
133.90	8.3273
133.91	8.3287
133.93	8.3298
133.94	8.3311
133.96	8.3324
133.98	8.3336
134.00	8.3349
134.01	8.3364
134.03	8.3376
134.05	8.3389
134.06	8.3404
134.08	8.3416
134.09	8.3430
134.13	8.3445
134.13	8.3456
134.14	8.3467
134.17	8.3479
134.19	8.3491
134.21	8.3505
134.22	8.3517
134.22	8.3530
134.23	8.3540
134.25	8.3552
134.28	8.3564
134.29	8.3576
134.31	8.3587
134.32	8.3600
134.34	8.3613
134.36	8.3627
134.38	8.3642
134.40	8.3655
134.41	8.3668
134.43	8.3681
134.44	8.3692
134.46	8.3705
134.48	8.3719
134.50	8.3733
134.51	8.3745
134.53	8.3756
134.55	8.3770
134.56	8.3780
134.57	8.3794
134.60	8.3808
134.61	8.3821
134.63	8.3835
134.64	8.3849
134.66	8.3863
134.67	8.3876
134.69	8.3890
134.71	8.3904
134.72	8.3917
134.74	8.3931
134.76	8.3942
134.78	8.3954
134.79	8.3967
134.81	8.3980
134.83	8.3993
134.84	8.4007
134.86	8.4020
134.88	8.4034
134.89	8.4049
134.91	8.4063
134.93	8.4077
134.94	8.4090
134.96	8.4105
134.97	8.4118
135.00	8.4131
135.01	8.4143
135.03	8.4157
135.05	8.4170
135.06	8.4181
135.08	8.4196
135.10	8.4208
135.11	8.4223
135.13	8.4235
135.15	8.4251
135.16	8.4262
135.18	8.4277
135.19	8.4290
135.21	8.4302
135.23	8.4317
135.25	8.4329
135.26	8.4342
135.28	8.4354
135.29	8.4366
135.31	8.4378
135.33	8.4390
135.34	8.4403
135.35	8.4416
135.38	8.4430
135.39	8.4441
135.40	8.4455
135.43	8.4467
135.44	8.4481
135.46	8.4493
135.48	8.4506
135.49	8.4519
135.50	8.4530
135.53	8.4544
135.54	8.4555
135.56	8.4568
135.58	8.4579
135.60	8.4591
135.61	8.4603
135.63	8.4617
135.65	8.4631
135.66	8.4643
135.68	8.4655
135.69	8.4667
135.71	8.4677
135.72	8.4689
135.74	8.4700
135.76	8.4710
135.78	8.4721
135.79	8.4733
135.81	8.4745
135.83	8.4756
135.85	8.4768
135.86	8.4781
135.88	8.4792
135.89	8.4806
135.91	8.4819
135.93	8.4828
135.94	8.4840
135.96	8.4852
135.98	8.4864
135.99	8.4876
136.01	8.4888
136.03	8.4902
136.04	8.4914
136.06	8.4927
136.07	8.4942
136.10	8.4955
136.11	8.4969
136.13	8.4983
136.14	8.4996
136.16	8.5010
136.18	8.5026
136.19	8.5041
136.21	8.5052
136.22	8.5067
136.24	8.5079
136.25	8.5092
136.28	8.5104
136.30	8.5116
136.31	8.5128
136.32	8.5143
136.34	8.5157
136.35	8.5169
136.38	8.5181
136.39	8.5194
136.41	8.5207
136.43	8.5220
136.44	8.5233
136.46	8.5247
136.47	8.5257
136.49	8.5270
136.51	8.5283
136.52	8.5296
136.54	8.5311
136.56	8.5325
136.58	8.5339
136.59	8.5355
136.61	8.5367
136.63	8.5381
136.64	8.5395
136.66	8.5405
136.68	8.5418
136.69	8.5430
136.71	8.5443
136.72	8.5458
136.74	8.5471
136.76	8.5483
136.78	8.5496
136.79	8.5510
136.81	8.5523
136.83	8.5538
136.84	8.5554
136.86	8.5568
136.88	8.5581
136.89	8.5598
136.91	8.5611
136.93	8.5624
136.94	8.5638
136.96	8.5650
136.97	8.5664
136.99	8.5677
137.01	8.5690
137.03	8.5703
137.05	8.5718
137.06	8.5732
137.08	8.5746
137.09	8.5761
137.11	8.5773
137.13	8.5787
137.14	8.5802
137.16	8.5815
137.18	8.5828
137.19	8.5841
137.21	8.5854
137.22	8.5867
137.24	8.5880
137.25	8.5891
137.27	8.5907
137.29	8.5920
137.31	8.5933
137.33	8.5948
137.34	8.5964
137.36	8.5976
137.38	8.5991
137.40	8.6007
137.41	8.6019
137.43	8.6033
137.44	8.6046
137.46	8.6058
137.47	8.6072
137.49	8.6084
137.51	8.6097
137.52	8.6112
137.54	8.6127
137.56	8.6142
137.58	8.6157
137.59	8.6172
137.61	8.6185
137.63	8.6199
137.64	8.6213
137.66	8.6225
137.68	8.6240
137.69	8.6254
137.71	8.6266
137.73	8.6279
137.75	8.6290
137.76	8.6305
137.78	8.6318
137.79	8.6332
137.81	8.6345
137.83	8.6359
137.84	8.6373
137.86	8.6385
137.88	8.6399
137.89	8.6413
137.91	8.6424
137.93	8.6436
137.94	8.6450
137.96	8.6461
137.97	8.6474
137.99	8.6485
138.01	8.6499
138.03	8.6513
138.04	8.6526
138.06	8.6540
138.08	8.6552
138.10	8.6567
138.11	8.6580
138.13	8.6592
138.15	8.6606
138.16	8.6618
138.18	8.6632
138.19	8.6645
138.21	8.6658
138.22	8.6671
138.24	8.6686
138.26	8.6699
138.28	8.6715
138.30	8.6730
138.31	8.6745
138.33	8.6761
138.35	8.6776
138.36	8.6792
138.38	8.6809
138.40	8.6823
138.41	8.6837
138.43	8.6849
138.44	8.6863
138.46	8.6877
138.47	8.6889
138.50	8.6905
138.51	8.6920
138.53	8.6934
138.54	8.6950
138.56	8.6963
138.58	8.6979
138.60	8.6995
138.61	8.7008
138.63	8.7022
138.65	8.7036
138.66	8.7049
138.68	8.7064
138.69	8.7076
138.71	8.7087
138.72	8.7101
138.74	8.7114
138.76	8.7129
138.78	8.7140
138.80	8.7156
138.81	8.7170
138.83	8.7186
138.85	8.7200
138.86	8.7214
138.88	8.7227
138.89	8.7241
138.91	8.7256
138.93	8.7269
138.94	8.7284
138.96	8.7296
138.98	8.7310
139.00	8.7326
139.01	8.7338
139.03	8.7353
139.05	8.7368
139.06	8.7381
139.08	8.7396
139.10	8.7410
139.12	8.7423
139.13	8.7437
139.15	8.7453
139.16	8.7464
139.18	8.7478
139.19	8.7488
139.21	8.7504
139.23	8.7519
139.25	8.7534
139.26	8.7550
139.28	8.7565
139.30	8.7579
139.31	8.7595
139.33	8.7611
139.35	8.7626
139.36	8.7640
139.38	8.7657
139.40	8.7671
139.41	8.7685
139.43	8.7701
139.45	8.7716
139.46	8.7730
139.48	8.7748
139.50	8.7763
139.51	8.7778
139.53	8.7792
139.55	8.7807
139.56	8.7826
139.58	8.7840
139.60	8.7855
139.61	8.7868
139.63	8.7881
139.65	8.7895
139.66	8.7906
139.68	8.7921
139.69	8.7934
139.71	8.7948
139.72	8.7963
139.74	8.7976
139.76	8.7992
139.78	8.8007
139.80	8.8021
139.82	8.8036
139.83	8.8051
139.85	8.8065
139.86	8.8079
139.88	8.8092
139.90	8.8105
139.91	8.8121
139.93	8.8135
139.94	8.8149
139.96	8.8163
139.98	8.8177
140.00	8.8190
140.01	8.8204
140.03	8.8220
140.05	8.8234
140.06	8.8249
140.08	8.8263
140.10	8.8277
140.11	8.8291
140.13	8.8303
140.15	8.8315
140.16	8.8329
140.18	8.8344
140.19	8.8358
140.21	8.8373
140.23	8.8389
140.25	8.8402
140.26	8.8415
140.28	8.8429
140.30	8.8443
140.31	8.8458
140.33	8.8472
140.35	8.8485
140.36	8.8499
140.38	8.8512
140.40	8.8525
140.41	8.8539
140.43	8.8552
140.44	8.8563
140.46	8.8578
140.48	8.8595
140.50	8.8609
140.51	8.8624
140.53	8.8639
140.55	8.8654
140.56	8.8667
140.58	8.8682
140.60	8.8696
140.61	8.8711
140.63	8.8726
140.65	8.8740
140.66	8.8753
140.68	8.8769
140.69	8.8783
140.71	8.8798
140.73	8.8814
140.74	8.8827
140.76	8.8844
140.78	8.8859
140.79	8.8874
140.81	8.8889
140.83	8.8903
140.85	8.8916
140.86	8.8930
140.88	8.8944
140.90	8.8956
140.91	8.8971
140.93	8.8985
140.94	8.8999
140.96	8.9015
140.98	8.9031
141.00	8.9047
141.02	8.9060
141.03	8.9074
141.05	8.9087
141.06	8.9100
141.08	8.9113
141.10	8.9129
141.11	8.9143
141.13	8.9157
141.15	8.9169
141.16	8.9184
141.18	8.9200
141.19	8.9215
141.21	8.9230
141.23	8.9246
141.25	8.9261
141.27	8.9275
141.28	8.9289
141.30	8.9304
141.32	8.9320
141.33	8.9334
141.35	8.9350
141.36	8.9366
141.38	8.9381
141.40	8.9398
141.41	8.9412
141.43	8.9427
141.44	8.9445
141.47	8.9462
141.48	8.9478
141.50	8.9493
141.51	8.9511
141.53	8.9528
141.55	8.9545
141.56	8.9560
141.58	8.9577
141.60	8.9592
141.61	8.9606
141.63	8.9620
141.65	8.9635
141.67	8.9650
141.68	8.9669
141.69	8.9685
141.71	8.9702
141.73	8.9719
141.75	8.9731
141.76	8.9748
141.78	8.9763
141.79	8.9780
141.81	8.9794
141.83	8.9811
141.85	8.9827
141.87	8.9843
141.88	8.9860
141.90	8.9876
141.91	8.9892
141.93	8.9908
141.94	8.9923
141.96	8.9939
141.98	8.9956
142.00	8.9970
142.01	8.9985
142.03	8.9999
142.05	9.0016
142.06	9.0031
142.08	9.0047
142.10	9.0064
142.11	9.0079
142.13	9.0094
142.15	9.0110
142.16	9.0126
142.18	9.0143
142.19	9.0158
142.21	9.0175
142.23	9.0190
142.25	9.0204
142.26	9.0218
142.28	9.0235
142.30	9.0250
142.31	9.0264
142.33	9.0279
142.35	9.0296
142.37	9.0312
142.38	9.0327
142.40	9.0343
142.41	9.0360
142.43	9.0375
142.44	9.0390
142.47	9.0407
142.48	9.0423
142.50	9.0438
142.51	9.0453
142.53	9.0468
142.55	9.0485
142.56	9.0502
142.58	9.0518
142.60	9.0533
142.62	9.0550
142.63	9.0567
142.65	9.0583
142.67	9.0602
142.68	9.0619
142.70	9.0635
142.72	9.0650
142.73	9.0667
142.74	9.0683
142.76	9.0700
142.78	9.0717
142.80	9.0734
142.81	9.0750
142.83	9.0767
142.85	9.0782
142.86	9.0797
142.88	9.0815
142.90	9.0831
142.92	9.0849
142.93	9.0865
142.94	9.0883
142.96	9.0901
142.98	9.0921
143.00	9.0937
143.01	9.0956
143.03	9.0972
143.05	9.0987
143.06	9.1003
143.08	9.1018
143.10	9.1032
143.12	9.1050
143.13	9.1068
143.15	9.1083
143.16	9.1101
143.18	9.1119
143.20	9.1138
143.22	9.1155
143.23	9.1170
143.25	9.1187
143.26	9.1202
143.28	9.1220
143.30	9.1234
143.31	9.1247
143.33	9.1263
143.35	9.1278
143.36	9.1296
143.38	9.1314
143.40	9.1329
143.41	9.1349
143.43	9.1365
143.44	9.1382
143.47	9.1399
143.48	9.1417
143.50	9.1432
143.51	9.1450
143.53	9.1466
143.55	9.1482
143.57	9.1499
143.58	9.1515
143.60	9.1532
143.62	9.1549
143.63	9.1568
143.65	9.1585
143.67	9.1602
143.68	9.1619
143.69	9.1637
143.71	9.1654
143.73	9.1671
143.75	9.1686
143.76	9.1703
143.78	9.1720
143.80	9.1736
143.81	9.1751
143.83	9.1769
143.85	9.1788
143.87	9.1806
143.88	9.1824
143.90	9.1843
143.91	9.1861
143.93	9.1877
143.95	9.1896
143.97	9.1914
143.98	9.1933
144.00	9.1946
144.02	9.1965
144.03	9.1985
144.04	9.2002
144.06	9.2020
144.08	9.2039
144.10	9.2057
144.12	9.2073
144.13	9.2092
144.15	9.2112
144.17	9.2129
144.18	9.2147
144.20	9.2164
144.21	9.2183
144.23	9.2203
144.25	9.2222
144.27	9.2241
144.28	9.2258
144.30	9.2277
144.31	9.2298
144.33	9.2316
144.35	9.2338
144.36	9.2358
144.38	9.2378
144.40	9.2397
144.41	9.2417
144.43	9.2437
144.44	9.2459
144.46	9.2479
144.48	9.2501
144.50	9.2523
144.51	9.2542
144.53	9.2563
144.55	9.2582
144.56	9.2604
144.58	9.2622
144.60	9.2643
144.62	9.2664
144.63	9.2683
144.65	9.2702
144.66	9.2723
144.68	9.2744
144.70	9.2765
144.71	9.2785
144.73	9.2805
144.75	9.2825
144.76	9.2845
144.78	9.2865
144.80	9.2884
144.81	9.2903
144.83	9.2924
144.85	9.2944
144.86	9.2966
144.88	9.2985
144.90	9.3005
144.91	9.3026
144.93	9.3047
144.94	9.3066
144.96	9.3086
144.98	9.3106
145.00	9.3125
145.01	9.3144
145.03	9.3165
145.05	9.3182
145.06	9.3202
145.08	9.3220
145.10	9.3237
145.11	9.3258
145.13	9.3280
145.15	9.3298
145.16	9.3319
145.18	9.3340
145.19	9.3360
145.21	9.3378
145.23	9.3397
145.25	9.3417
145.27	9.3437
145.28	9.3458
145.30	9.3478
145.31	9.3499
145.33	9.3520
145.35	9.3540
145.36	9.3562
145.38	9.3582
145.39	9.3602
145.41	9.3623
145.43	9.3642
145.44	9.3663
145.46	9.3682
145.48	9.3702
145.50	9.3725
145.51	9.3747
145.53	9.3768
145.55	9.3790
145.56	9.3810
145.58	9.3829
145.60	9.3847
145.61	9.3867
145.63	9.3887
145.65	9.3907
145.66	9.3928
145.68	9.3949
145.69	9.3970
145.71	9.3991
145.72	9.4013
145.75	9.4034
145.76	9.4052
145.78	9.4073
145.79	9.4093
145.80	9.4113
145.83	9.4132
145.85	9.4153
145.86	9.4174
145.88	9.4195
145.89	9.4215
145.91	9.4235
145.93	9.4257
145.94	9.4277
145.96	9.4298
145.97	9.4316
145.99	9.4336
146.01	9.4357
146.03	9.4377
146.04	9.4398
146.06	9.4419
146.08	9.4439
146.09	9.4461
146.11	9.4483
146.13	9.4502
146.14	9.4522
146.16	9.4544
146.18	9.4563
146.19	9.4581
146.21	9.4602
146.22	9.4622
146.24	9.4640
146.26	9.4661
146.28	9.4682
146.29	9.4705
146.31	9.4725
146.33	9.4744
146.34	9.4765
146.36	9.4788
146.38	9.4807
146.39	9.4828
146.40	9.4846
146.43	9.4867
146.44	9.4885
146.46	9.4906
146.47	9.4928
146.49	9.4949
146.51	9.4973
146.53	9.4990
146.54	9.5013
146.55	9.5033
146.57	9.5055
146.59	9.5076
146.60	9.5098
146.62	9.5117
146.64	9.5139
146.66	9.5159
146.68	9.5182
146.69	9.5203
146.70	9.5225
146.72	9.5247
146.74	9.5268
146.76	9.5288
146.78	9.5308
146.79	9.5329
146.81	9.5349
146.83	9.5368
146.84	9.5387
146.86	9.5407
146.88	9.5427
146.89	9.5446
146.91	9.5469
146.93	9.5489
146.94	9.5511
146.95	9.5530
146.97	9.5548
146.99	9.5570
147.00	9.5590
147.02	9.5607
147.04	9.5625
147.05	9.5645
147.07	9.5665
147.09	9.5687
147.11	9.5708
147.13	9.5727
147.14	9.5748
147.15	9.5769
147.17	9.5790
147.19	9.5810
147.21	9.5830
147.22	9.5852
147.24	9.5873
147.26	9.5890
147.28	9.5906
147.29	9.5928
147.30	9.5949
147.32	9.5968
147.34	9.5987
147.36	9.6005
147.38	9.6024
147.39	9.6044
147.40	9.6063
147.43	9.6082
147.44	9.6102
147.45	9.6121
147.47	9.6139
147.49	9.6158
147.50	9.6177
147.52	9.6197
147.54	9.6215
147.56	9.6234
147.58	9.6252
147.59	9.6270
147.61	9.6287
147.63	9.6303
147.64	9.6322
147.65	9.6341
147.67	9.6358
147.69	9.6377
147.70	9.6395
147.72	9.6412
147.74	9.6431
147.75	9.6449
147.77	9.6466
147.79	9.6483
147.80	9.6500
147.82	9.6516
147.84	9.6532
147.85	9.6550
147.87	9.6568
147.89	9.6589
147.91	9.6606
147.92	9.6623
147.94	9.6639
147.95	9.6658
147.97	9.6673
147.99	9.6692
148.00	9.6709
148.02	9.6727
148.04	9.6742
148.05	9.6759
148.07	9.6772
148.09	9.6789
148.10	9.6805
148.12	9.6822
148.14	9.6837
148.15	9.6853
148.17	9.6868
148.19	9.6885
148.20	9.6901
148.22	9.6918
148.24	9.6933
148.25	9.6948
148.27	9.6966
148.29	9.6983
148.30	9.6999
148.32	9.7014
148.34	9.7030
148.35	9.7045
148.37	9.7061
148.38	9.7078
148.40	9.7092
148.42	9.7107
148.43	9.7122
148.45	9.7136
148.47	9.7150
148.49	9.7165
148.50	9.7182
148.52	9.7196
148.54	9.7212
148.55	9.7230
148.57	9.7244
148.58	9.7260
148.60	9.7274
148.62	9.7288
148.64	9.7303
148.65	9.7317
148.67	9.7331
148.69	9.7343
148.70	9.7357
148.72	9.7372
148.73	9.7388
148.75	9.7402
148.77	9.7416
148.78	9.7430
148.80	9.7442
148.82	9.7455
148.84	9.7469
148.85	9.7482
148.87	9.7493
148.89	9.7506
148.90	9.7517
148.92	9.7531
148.94	9.7546
148.95	9.7557
148.97	9.7569
148.98	9.7581
149.00	9.7594
149.02	9.7603
149.03	9.7614
149.05	9.7625
149.07	9.7636
149.08	9.7647
149.10	9.7660
149.12	9.7670
149.13	9.7680
149.15	9.7690
149.17	9.7703
149.18	9.7712
149.20	9.7725
149.22	9.7732
149.23	9.7742
149.25	9.7751
149.27	9.7762
149.28	9.7771
149.30	9.7782
149.32	9.7790
149.33	9.7799
149.35	9.7806
149.37	9.7815
149.38	9.7825
149.40	9.7833
149.42	9.7841
149.43	9.7852
149.45	9.7859
149.47	9.7867
149.48	9.7877
149.50	9.7885
149.52	9.7895
149.54	9.7905
149.55	9.7915
149.57	9.7923
149.58	9.7932
149.60	9.7942
149.62	9.7950
149.63	9.7958
149.65	9.7967
149.66	9.7976
149.68	9.7987
149.70	9.7994
149.72	9.8004
149.73	9.8015
149.75	9.8024
149.77	9.8035
149.78	9.8046
149.80	9.8052
149.82	9.8064
149.83	9.8075
149.85	9.8083
149.87	9.8094
149.88	9.8104
149.90	9.8112
149.92	9.8122
149.93	9.8133
149.95	9.8144
149.97	9.8153
149.98	9.8163
150.00	9.8172
150.02	9.8182
150.03	9.8194
150.05	9.8201
150.07	9.8213
150.08	9.8222
150.10	9.8229
150.12	9.8241
150.13	9.8252
150.15	9.8264
150.16	9.8274
150.18	9.8285
150.20	9.8293
150.21	9.8304
150.23	9.8315
150.25	9.8324
150.26	9.8333
150.28	9.8343
150.30	9.8354
150.32	9.8364
150.33	9.8374
150.35	9.8385
150.36	9.8396
150.38	9.8408
150.40	9.8418
150.41	9.8430
150.43	9.8442
150.45	9.8453
150.47	9.8462
150.48	9.8473
150.50	9.8486
150.52	9.8497
150.53	9.8509
150.55	9.8521
150.57	9.8534
150.58	9.8546
150.60	9.8558
150.61	9.8570
150.63	9.8582
150.65	9.8594
150.66	9.8607
150.68	9.8622
150.70	9.8633
150.72	9.8645
150.73	9.8660
150.75	9.8673
150.76	9.8688
150.78	9.8704
150.80	9.8718
150.81	9.8732
150.83	9.8747
150.85	9.8760
150.86	9.8779
150.88	9.8791
150.90	9.8806
150.91	9.8822
150.93	9.8839
150.94	9.8855
150.96	9.8871
150.98	9.8889
151.00	9.8906
151.01	9.8923
151.03	9.8939
151.05	9.8956
151.06	9.8972
151.08	9.8990
151.09	9.9005
151.11	9.9021
151.13	9.9039
151.15	9.9058
151.16	9.9077
151.18	9.9096
151.19	9.9114
151.21	9.9135
151.23	9.9155
151.25	9.9171
151.26	9.9188
151.28	9.9205
151.30	9.9223
151.31	9.9240
151.33	9.9258
151.34	9.9276
151.36	9.9295
151.38	9.9314
151.39	9.9332
151.41	9.9352
151.43	9.9373
151.44	9.9392
151.47	9.9412
151.48	9.9431
151.50	9.9451
151.51	9.9472
151.53	9.9492
151.55	9.9515
151.56	9.9537
151.58	9.9559
151.59	9.9578
151.61	9.9603
151.63	9.9624
151.65	9.9645
151.66	9.9667
151.68	9.9687
151.69	9.9709
151.71	9.9730
151.73	9.9752
151.74	9.9775
151.76	9.9797
151.78	9.9822
151.79	9.9843
151.81	9.9865
151.83	9.9887
151.84	9.9908
151.86	9.9931
151.88	9.9955
151.89	9.9974
151.91	9.9994
151.93	10.0016
151.94	10.0040
151.96	10.0063
151.97	10.0088
152.00	10.0111
152.01	10.0137
152.02	10.0160
152.04	10.0184
152.06	10.0208
152.08	10.0233
152.09	10.0256
152.11	10.0280
152.13	10.0303
152.15	10.0326
152.16	10.0353
152.18	10.0378
152.19	10.0402
152.21	10.0430
152.22	10.0453
152.24	10.0477
152.26	10.0502
152.28	10.0528
152.30	10.0552
152.31	10.0577
152.33	10.0602
152.34	10.0629
152.36	10.0656
152.38	10.0681
152.39	10.0708
152.41	10.0735
152.42	10.0761
152.44	10.0787
152.45	10.0814
152.47	10.0839
152.49	10.0866
152.50	10.0893
152.53	10.0920
152.54	10.0946
152.56	10.0974
152.58	10.1003
152.59	10.1030
152.61	10.1059
152.62	10.1087
152.64	10.1113
152.65	10.1139
152.67	10.1167
152.69	10.1193
152.70	10.1220
152.72	10.1247
152.73	10.1274
152.75	10.1301
152.77	10.1328
152.79	10.1356
152.80	10.1382
152.82	10.1409
152.84	10.1435
152.86	10.1462
152.88	10.1490
152.89	10.1518
152.91	10.1544
152.93	10.1570
152.94	10.1597
152.95	10.1626
152.97	10.1655
152.99	10.1682
153.00	10.1711
153.02	10.1739
153.04	10.1769
153.05	10.1796
153.07	10.1825
153.09	10.1852
153.10	10.1881
153.13	10.1907
153.14	10.1934
153.16	10.1963
153.17	10.1993
153.19	10.2020
153.20	10.2048
153.22	10.2079
153.24	10.2109
153.25	10.2136
153.27	10.2166
153.29	10.2192
153.30	10.2224
153.32	10.2253
153.33	10.2280
153.35	10.2309
153.37	10.2338
153.39	10.2367
153.40	10.2397
153.42	10.2426
153.44	10.2454
153.45	10.2482
153.47	10.2509
153.49	10.2538
153.50	10.2567
153.52	10.2596
153.54	10.2625
153.55	10.2653
153.57	10.2683
153.58	10.2712
153.60	10.2740
153.62	10.2768
153.64	10.2798
153.65	10.2826
153.67	10.2855
153.69	10.2880
153.70	10.2907
153.72	10.2935
153.74	10.2962
153.75	10.2991
153.77	10.3021
153.79	10.3045
153.80	10.3075
153.82	10.3105
153.83	10.3133
153.85	10.3161
153.88	10.3188
153.89	10.3216
153.90	10.3245
153.92	10.3272
153.93	10.3298
153.94	10.3327
153.96	10.3356
153.98	10.3384
154.00	10.3413
154.02	10.3441
154.03	10.3469
154.05	10.3499
154.07	10.3525
154.08	10.3551
154.10	10.3580
154.12	10.3610
154.13	10.3637
154.15	10.3666
154.17	10.3694
154.18	10.3722
154.19	10.3752
154.22	10.3781
154.23	10.3810
154.25	10.3840
154.27	10.3868
154.29	10.3896
154.30	10.3926
154.32	10.3954
154.33	10.3982
154.35	10.4011
154.37	10.4040
154.39	10.4071
154.40	10.4100
154.42	10.4127
154.43	10.4155
154.45	10.4185
154.47	10.4214
154.48	10.4243
154.50	10.4272
154.51	10.4299
154.53	10.4326
154.55	10.4357
154.57	10.4386
154.58	10.4413
154.60	10.4443
154.61	10.4470
154.63	10.4499
154.65	10.4525
154.66	10.4552
154.68	10.4581
154.70	10.4608
154.72	10.4636
154.73	10.4664
154.75	10.4693
154.76	10.4722
154.78	10.4749
154.80	10.4775
154.82	10.4803
154.83	10.4832
154.85	10.4860
154.86	10.4888
154.88	10.4913
154.90	10.4940
154.91	10.4968
154.93	10.4996
154.94	10.5023
154.96	10.5051
154.98	10.5079
155.00	10.5106
155.01	10.5136
155.03	10.5162
155.05	10.5191
155.07	10.5218
155.08	10.5244
155.10	10.5269
155.12	10.5295
155.13	10.5323
155.15	10.5350
155.17	10.5378
155.18	10.5405
155.19	10.5435
155.21	10.5464
155.23	10.5491
155.25	10.5518
155.25	10.5545
155.26	10.5573
155.29	10.5600
155.31	10.5627
155.33	10.5653
155.35	10.5679
155.36	10.5706
155.38	10.5735
155.40	10.5764
155.41	10.5790
155.43	10.5819
155.44	10.5846
155.46	10.5873
155.48	10.5900
155.50	10.5927
155.51	10.5954
155.53	10.5980
155.54	10.6005
155.56	10.6032
155.58	10.6061
155.60	10.6088
155.61	10.6114
155.63	10.6144
155.65	10.6171
155.66	10.6198
155.68	10.6225
155.69	10.6251
155.71	10.6279
155.73	10.6305
155.75	10.6332
155.77	10.6360
155.78	10.6388
155.80	10.6416
155.81	10.6442
155.83	10.6472
155.85	10.6499
155.86	10.6525
155.88	10.6555
155.90	10.6583
155.91	10.6611
155.93	10.6639
155.94	10.6667
155.96	10.6693
155.98	10.6722
155.99	10.6751
156.01	10.6778
156.03	10.6808
156.05	10.6837
156.06	10.6864
156.08	10.6890
156.10	10.6919
156.11	10.6947
156.13	10.6976
156.14	10.7003
156.16	10.7031
156.18	10.7061
156.19	10.7090
156.21	10.7118
156.23	10.7150
156.25	10.7179
156.26	10.7207
156.28	10.7236
156.30	10.7265
156.31	10.7296
156.33	10.7325
156.35	10.7354
156.36	10.7382
156.38	10.7410
156.40	10.7442
156.41	10.7470
156.43	10.7502
156.44	10.7532
156.46	10.7561
156.48	10.7593
156.50	10.7626
156.51	10.7654
156.53	10.7685
156.54	10.7716
156.56	10.7746
156.58	10.7777
156.59	10.7808
156.61	10.7838
156.63	10.7870
156.64	10.7902
156.66	10.7932
156.67	10.7964
156.69	10.7993
156.71	10.8024
156.73	10.8055
156.74	10.8085
156.76	10.8115
156.78	10.8146
156.79	10.8177
156.81	10.8206
156.83	10.8239
156.85	10.8271
156.86	10.8303
156.88	10.8334
156.90	10.8364
156.91	10.8395
156.93	10.8426
156.94	10.8456
156.96	10.8483
156.98	10.8515
157.00	10.8546
157.01	10.8578
157.03	10.8610
157.04	10.8642
157.06	10.8675
157.08	10.8707
157.09	10.8740
157.11	10.8772
157.13	10.8803
157.14	10.8837
157.16	10.8868
157.18	10.8902
157.19	10.8934
157.21	10.8967
157.23	10.9001
157.24	10.9035
157.26	10.9068
157.28	10.9101
157.29	10.9134
157.31	10.9166
157.33	10.9200
157.35	10.9233
157.36	10.9265
157.38	10.9298
157.40	10.9333
157.41	10.9366
157.43	10.9399
157.44	10.9434
157.46	10.9469
157.47	10.9503
157.50	10.9537
157.51	10.9571
157.53	10.9605
157.54	10.9639
157.56	10.9674
157.58	10.9708
157.60	10.9742
157.61	10.9779
157.63	10.9815
157.65	10.9851
157.66	10.9889
157.68	10.9923
157.69	10.9959
157.71	10.9993
157.72	11.0030
157.74	11.0065
157.76	11.0100
157.78	11.0138
157.79	11.0175
157.81	11.0212
157.83	11.0250
157.85	11.0288
157.86	11.0325
157.88	11.0364
157.89	11.0401
157.91	11.0437
157.93	11.0475
157.94	11.0513
157.96	11.0548
157.98	11.0586
157.99	11.0625
158.01	11.0662
158.03	11.0703
158.04	11.0740
158.06	11.0781
158.08	11.0818
158.09	11.0856
158.11	11.0897
158.13	11.0936
158.14	11.0975
158.16	11.1014
158.18	11.1053
158.19	11.1093
158.21	11.1133
158.22	11.1172
158.25	11.1211
158.26	11.1253
158.28	11.1294
158.30	11.1334
158.31	11.1374
158.33	11.1414
158.34	11.1454
158.36	11.1495
158.38	11.1534
158.39	11.1576
158.40	11.1617
158.42	11.1655
158.44	11.1696
158.46	11.1738
158.47	11.1779
158.49	11.1819
158.50	11.1859
158.52	11.1903
158.54	11.1943
158.56	11.1984
158.58	11.2028
158.59	11.2069
158.61	11.2110
158.63	11.2154
158.64	11.2200
158.66	11.2241
158.67	11.2284
158.69	11.2328
158.71	11.2370
158.73	11.2413
158.74	11.2460
158.75	11.2500
158.77	11.2544
158.79	11.2590
158.81	11.2632
158.83	11.2676
158.84	11.2724
158.85	11.2768
158.88	11.2812
158.89	11.2858
158.90	11.2904
158.92	11.2949
158.94	11.2993
158.96	11.3039
158.97	11.3084
158.99	11.3132
159.00	11.3178
159.02	11.3223
159.04	11.3271
159.06	11.3317
159.08	11.3363
159.09	11.3410
159.11	11.3457
159.13	11.3507
159.14	11.3554
159.15	11.3603
159.17	11.3651
159.19	11.3701
159.21	11.3746
159.22	11.3794
159.24	11.3843
159.26	11.3891
159.28	11.3940
159.29	11.3989
159.31	11.4037
159.32	11.4087
159.34	11.4137
159.35	11.4185
159.37	11.4231
159.39	11.4283
159.41	11.4332
159.42	11.4383
159.44	11.4434
159.46	11.4484
159.47	11.4535
159.49	11.4582
159.51	11.4633
159.52	11.4684
159.54	11.4734
159.55	11.4784
159.57	11.4836
159.59	11.4889
159.60	11.4939
159.63	11.4993
159.64	11.5046
159.65	11.5099
159.68	11.5151
159.69	11.5202
159.70	11.5256
159.72	11.5308
159.74	11.5361
159.75	11.5414
159.77	11.5467
159.79	11.5521
159.80	11.5574
159.83	11.5630
159.84	11.5687
159.85	11.5745
159.87	11.5800
159.89	11.5856
159.90	11.5913
159.92	11.5970
159.93	11.6028
159.95	11.6083
159.97	11.6141
159.99	11.6199
160.00	11.6258
160.02	11.6316
160.04	11.6375
160.05	11.6433
160.08	11.6492
160.09	11.6550
160.10	11.6610
160.13	11.6671
160.14	11.6730
160.15	11.6791
160.17	11.6850
160.19	11.6910
160.20	11.6971
160.22	11.7033
160.24	11.7092
160.25	11.7155
160.28	11.7217
160.29	11.7278
160.30	11.7340
160.32	11.7404
160.34	11.7466
160.35	11.7527
160.37	11.7591
160.39	11.7651
160.40	11.7713
160.42	11.7778
160.44	11.7842
160.45	11.7906
160.47	11.7972
160.49	11.8035
160.50	11.8101
160.52	11.8167
160.54	11.8231
160.55	11.8297
160.57	11.8362
160.59	11.8425
160.60	11.8491
160.62	11.8557
160.64	11.8622
160.65	11.8691
160.67	11.8755
160.68	11.8821
160.70	11.8888
160.72	11.8954
160.74	11.9023
160.75	11.9090
160.77	11.9158
160.79	11.9225
160.80	11.9293
160.82	11.9362
160.83	11.9431
160.85	11.9499
160.87	11.9570
160.89	11.9641
160.90	11.9709
160.92	11.9779
160.94	11.9849
160.95	11.9919
160.97	11.9989
160.98	12.0060
161.00	12.0131
161.02	12.0203
161.03	12.0274
161.05	12.0346
161.07	12.0417
161.08	12.0490
161.10	12.0563
161.12	12.0636
161.14	12.0710
161.15	12.0781
161.17	12.0852
161.18	12.0925
161.20	12.0998
161.22	12.1074
161.24	12.1144
161.25	12.1219
161.27	12.1293
161.28	12.1365
161.30	12.1440
161.32	12.1514
161.33	12.1587
161.35	12.1661
161.37	12.1734
161.38	12.1806
161.40	12.1881
161.42	12.1956
161.43	12.2031
161.45	12.2107
161.47	12.2182
161.48	12.2259
161.50	12.2337
161.52	12.2411
161.53	12.2488
161.55	12.2564
161.57	12.2641
161.58	12.2718
161.60	12.2795
161.62	12.2873
161.63	12.2951
161.65	12.3031
161.67	12.3109
161.68	12.3187
161.69	12.3266
161.71	12.3348
161.73	12.3425
161.75	12.3504
161.77	12.3584
161.78	12.3663
161.80	12.3744
161.82	12.3827
161.83	12.3907
161.85	12.3988
161.87	12.4070
161.88	12.4150
161.90	12.4236
161.92	12.4316
161.93	12.4396
161.95	12.4478
161.97	12.4561
161.98	12.4641
162.00	12.4723
162.02	12.4803
162.03	12.4885
162.05	12.4967
162.06	12.5049
162.08	12.5129
162.10	12.5212
162.12	12.5293
162.13	12.5374
162.15	12.5455
162.17	12.5536
162.18	12.5615
162.20	12.5695
162.21	12.5778
162.23	12.5861
162.25	12.5943
162.27	12.6023
162.28	12.6106
162.30	12.6187
162.31	12.6269
162.33	12.6352
162.35	12.6433
162.36	12.6515
162.38	12.6596
162.40	12.6677
162.41	12.6757
162.43	12.6837
162.44	12.6920
162.46	12.7001
162.48	12.7083
162.50	12.7166
162.51	12.7246
162.53	12.7327
162.55	12.7409
162.56	12.7489
162.58	12.7567
162.59	12.7649
162.61	12.7729
162.63	12.7811
162.65	12.7890
162.66	12.7972
162.68	12.8053
162.70	12.8132
162.72	12.8211
162.73	12.8292
162.75	12.8373
162.76	12.8452
162.78	12.8533
162.80	12.8611
162.81	12.8691
162.83	12.8771
162.85	12.8851
162.86	12.8934
162.88	12.9014
162.90	12.9095
162.91	12.9178
162.93	12.9262
162.94	12.9350
162.96	12.9438
162.97	12.9527
163.00	12.9615
163.01	12.9708
163.03	12.9800
163.05	12.9892
163.06	12.9987
163.08	13.0081
163.10	13.0174
163.11	13.0269
163.13	13.0358
163.15	13.0449
163.16	13.0542
163.18	13.0631
163.19	13.0722
163.21	13.0810
163.23	13.0896
163.25	13.0987
163.26	13.1075
163.28	13.1160
163.29	13.1248
163.31	13.1335
163.33	13.1421
163.35	13.1505
163.36	13.1589
163.38	13.1672
163.39	13.1755
163.41	13.1840
163.43	13.1921
163.44	13.2003
163.46	13.2087
163.48	13.2167
163.49	13.2250
163.51	13.2331
163.53	13.2411
163.55	13.2492
163.56	13.2573
163.58	13.2653
163.59	13.2733
163.61	13.2812
163.63	13.2892
163.65	13.2973
163.66	13.3051
163.68	13.3130
163.69	13.3209
163.71	13.3286
163.73	13.3363
163.75	13.3443
163.76	13.3521
163.78	13.3597
163.80	13.3675
163.81	13.3752
163.83	13.3830
163.84	13.3907
163.86	13.3984
163.88	13.4061
163.90	13.4138
163.91	13.4215
163.93	13.4290
163.94	13.4367
163.96	13.4443
163.97	13.4517
163.99	13.4594
164.01	13.4671
164.03	13.4747
164.04	13.4825
164.06	13.4901
164.08	13.4975
164.09	13.5051
164.11	13.5127
164.13	13.5202
164.14	13.5277
164.16	13.5354
164.18	13.5428
164.19	13.5504
164.21	13.5580
164.22	13.5655
164.24	13.5730
164.26	13.5805
164.28	13.5878
164.29	13.5952
164.30	13.6027
164.32	13.6100
164.34	13.6173
164.36	13.6248
164.38	13.6319
164.39	13.6394
164.41	13.6466
164.42	13.6538
164.44	13.6612
164.46	13.6685
164.48	13.6757
164.50	13.6831
164.51	13.6901
164.53	13.6973
164.54	13.7044
164.56	13.7111
164.58	13.7182
164.59	13.7253
164.61	13.7323
164.63	13.7395
164.64	13.7466
164.65	13.7535
164.67	13.7606
164.69	13.7674
164.71	13.7743
164.72	13.7814
164.74	13.7883
164.76	13.7951
164.78	13.8019
164.79	13.8086
164.80	13.8156
164.83	13.8223
164.84	13.8291
164.86	13.8358
164.88	13.8427
164.89	13.8493
164.91	13.8558
164.93	13.8626
164.94	13.8693
164.96	13.8759
164.97	13.8825
164.99	13.8890
165.01	13.8956
165.03	13.9020
165.04	13.9085
165.06	13.9149
165.07	13.9214
165.09	13.9280
165.11	13.9344
165.13	13.9409
165.14	13.9472
165.15	13.9537
165.17	13.9599
165.19	13.9661
165.20	13.9726
165.22	13.9790
165.24	13.9855
165.25	13.9916
165.28	13.9980
165.29	14.0043
165.31	14.0105
165.33	14.0168
165.34	14.0228
165.36	14.0290
165.38	14.0352
165.39	14.0414
165.40	14.0475
165.42	14.0535
165.44	14.0597
165.45	14.0657
165.47	14.0718
165.49	14.0778
165.51	14.0835
165.53	14.0895
165.54	14.0953
165.55	14.1011
165.57	14.1071
165.59	14.1128
165.61	14.1183
165.63	14.1245
165.64	14.1302
165.66	14.1359
165.68	14.1416
165.69	14.1474
165.71	14.1530
165.72	14.1585
165.74	14.1641
165.75	14.1697
165.78	14.1754
165.79	14.1809
165.81	14.1865
165.83	14.1922
165.84	14.1978
165.85	14.2033
165.88	14.2089
165.89	14.2143
165.90	14.2198
165.92	14.2252
165.94	14.2308
165.95	14.2362
165.97	14.2418
165.99	14.2470
166.01	14.2523
166.03	14.2577
166.04	14.2632
166.05	14.2687
166.07	14.2740
166.09	14.2795
166.10	14.2849
166.13	14.2905
166.14	14.2957
166.16	14.3009
166.17	14.3062
166.19	14.3113
166.20	14.3164
166.22	14.3214
166.24	14.3264
166.25	14.3314
166.27	14.3367
166.29	14.3417
166.31	14.3466
166.32	14.3517
166.34	14.3565
166.35	14.3614
166.38	14.3661
166.39	14.3708
166.41	14.3754
166.42	14.3801
166.44	14.3850
166.45	14.3896
166.47	14.3944
166.49	14.3986
166.50	14.4031
166.52	14.4075
166.54	14.4120
166.55	14.4163
166.57	14.4206
166.59	14.4250
166.61	14.4292
166.63	14.4336
166.64	14.4380
166.65	14.4423
166.67	14.4465
166.69	14.4507
166.70	14.4548
166.72	14.4592
166.74	14.4635
166.76	14.4675
166.78	14.4716
166.79	14.4758
166.80	14.4800
166.82	14.4841
166.84	14.4883
166.85	14.4926
166.87	14.4965
166.89	14.5008
166.90	14.5048
166.92	14.5090
166.94	14.5132
166.96	14.5173
166.97	14.5211
166.99	14.5252
167.00	14.5292
167.03	14.5333
167.04	14.5374
167.05	14.5411
167.07	14.5454
167.09	14.5492
167.10	14.5531
167.12	14.5569
167.14	14.5610
167.15	14.5649
167.18	14.5688
167.19	14.5727
167.21	14.5766
167.22	14.5803
167.24	14.5842
167.25	14.5880
167.28	14.5915
167.29	14.5953
167.30	14.5988
167.32	14.6026
167.34	14.6062
167.35	14.6098
167.37	14.6135
167.39	14.6170
167.40	14.6206
167.42	14.6240
167.44	14.6277
167.45	14.6313
167.47	14.6346
167.49	14.6382
167.50	14.6416
167.52	14.6451
167.53	14.6484
167.55	14.6518
167.57	14.6551
167.59	14.6584
167.60	14.6616
167.62	14.6648
167.63	14.6681
167.65	14.6712
167.67	14.6746
167.69	14.6775
167.70	14.6806
167.72	14.6837
167.74	14.6866
167.75	14.6898
167.77	14.6926
167.79	14.6955
167.80	14.6985
167.82	14.7015
167.84	14.7044
167.85	14.7070
167.87	14.7100
167.89	14.7127
167.90	14.7154
167.92	14.7181
167.94	14.7209
167.96	14.7234
167.97	14.7262
167.99	14.7288
168.00	14.7313
168.02	14.7337
168.03	14.7362
168.05	14.7388
168.07	14.7413
168.09	14.7439
168.11	14.7461
168.12	14.7485
168.14	14.7510
168.15	14.7532
168.17	14.7554
168.19	14.7580
168.20	14.7599
168.22	14.7621
168.24	14.7643
168.26	14.7664
168.28	14.7684
168.29	14.7704
168.31	14.7725
168.33	14.7743
168.34	14.7763
168.35	14.7781
168.37	14.7797
168.38	14.7816
168.40	14.7832
168.42	14.7848
168.44	14.7865
168.45	14.7880
168.47	14.7897
168.49	14.7912
168.50	14.7924
168.52	14.7938
168.54	14.7952
168.55	14.7964
168.57	14.7974
168.59	14.7986
168.60	14.7997
168.62	14.8009
168.63	14.8017
168.65	14.8024
168.67	14.8032
168.69	14.8039
168.71	14.8045
168.72	14.8051
168.74	14.8056
168.75	14.8058
168.77	14.8061
168.79	14.8064
168.80	14.8065
168.82	14.8065
168.83	14.8066
168.85	14.8067
168.87	14.8065
168.88	14.8066
168.90	14.8064
168.92	14.8060
168.94	14.8058
168.95	14.8053
168.97	14.8046
168.99	14.8040
169.00	14.8032
169.02	14.8025
169.04	14.8018
169.06	14.8010
169.07	14.8002
169.09	14.7992
169.10	14.7981
169.12	14.7970
169.13	14.7957
169.15	14.7943
169.17	14.7929
169.19	14.7915
169.20	14.7898
169.22	14.7882
169.23	14.7864
169.25	14.7845
169.27	14.7829
169.29	14.7811
169.30	14.7787
169.32	14.7766
169.34	14.7743
169.35	14.7718
169.37	14.7693
169.39	14.7667
169.41	14.7639
169.42	14.7611
169.44	14.7582
169.45	14.7552
169.47	14.7522
169.49	14.7489
169.50	14.7456
169.52	14.7422
169.54	14.7387
169.55	14.7351
169.57	14.7313
169.58	14.7276
169.60	14.7232
169.62	14.7191
169.63	14.7147
169.65	14.7104
169.67	14.7059
169.68	14.7013
169.70	14.6967
169.72	14.6920
169.74	14.6869
169.75	14.6820
169.77	14.6768
169.79	14.6714
169.80	14.6661
169.82	14.6609
169.84	14.6551
169.85	14.6494
169.87	14.6435
169.89	14.6374
169.90	14.6313
169.92	14.6251
169.94	14.6185
169.95	14.6120
169.97	14.6051
169.98	14.5981
170.00	14.5912
170.02	14.5838
170.04	14.5761
170.05	14.5686
170.07	14.5608
170.09	14.5529
170.10	14.5448
170.12	14.5366
170.13	14.5281
170.15	14.5196
170.17	14.5108
170.19	14.5021
170.20	14.4930
170.22	14.4839
170.24	14.4746
170.25	14.4653
170.27	14.4558
170.29	14.4457
170.30	14.4358
170.32	14.4258
170.34	14.4154
170.35	14.4048
170.37	14.3941
170.39	14.3832
170.41	14.3721
170.43	14.3608
170.44	14.3493
170.46	14.3378
170.47	14.3257
170.49	14.3139
170.50	14.3016
170.53	14.2892
170.53	14.2767
170.56	14.2638
170.58	14.2508
170.60	14.2376
170.61	14.2242
170.62	14.2105
170.63	14.1966
170.65	14.1826
170.67	14.1684
170.69	14.1542
170.70	14.1394
170.72	14.1243
170.73	14.1093
170.75	14.0938
170.77	14.0782
170.79	14.0625
170.81	14.0465
170.82	14.0304
170.83	14.0139
170.85	13.9974
170.87	13.9806
170.89	13.9635
170.90	13.9461
170.92	13.9287
170.94	13.9107
170.95	13.8927
170.97	13.8745
170.99	13.8563
171.00	13.8377
171.02	13.8190
171.04	13.8000
171.05	13.7809
171.07	13.7614
171.09	13.7418
171.10	13.7221
171.12	13.7021
171.13	13.6819
171.15	13.6617
171.18	13.6410
171.19	13.6203
171.20	13.5991
171.22	13.5781
171.24	13.5567
171.25	13.5352
171.27	13.5132
171.28	13.4915
171.30	13.4695
171.32	13.4474
171.33	13.4249
171.35	13.4023
171.37	13.3795
171.38	13.3567
171.40	13.3337
171.43	13.3105
171.44	13.2872
171.45	13.2639
171.47	13.2404
171.48	13.2165
171.50	13.1926
171.52	13.1689
171.53	13.1449
171.55	13.1207
171.57	13.0963
171.58	13.0720
171.60	13.0476
171.62	13.0232
171.64	12.9987
171.65	12.9739
171.67	12.9492
171.69	12.9246
171.70	12.8996
171.72	12.8749
171.74	12.8503
171.75	12.8255
171.77	12.8007
171.78	12.7760
171.80	12.7513
171.82	12.7265
171.84	12.7018
171.85	12.6770
171.87	12.6524
171.88	12.6277
171.90	12.6032
171.92	12.5786
171.94	12.5543
171.95	12.5300
171.97	12.5060
171.99	12.4815
172.00	12.4575
172.02	12.4336
172.03	12.4097
172.05	12.3861
172.07	12.3624
172.09	12.3388
172.10	12.3154
172.12	12.2925
172.14	12.2695
172.15	12.2465
172.17	12.2234
172.19	12.2007
172.20	12.1781
172.22	12.1559
172.24	12.1336
172.25	12.1119
172.27	12.0901
172.28	12.0686
172.30	12.0472
172.32	12.0261
172.34	12.0052
172.35	11.9845
172.37	11.9642
172.39	11.9438
172.40	11.9239
172.42	11.9043
172.43	11.8847
172.45	11.8653
172.47	11.8463
172.49	11.8272
172.50	11.8089
172.52	11.7904
172.54	11.7720
172.55	11.7543
172.57	11.7366
172.59	11.7192
172.60	11.7018
172.62	11.6848
172.63	11.6679
172.65	11.6514
172.67	11.6348
172.68	11.6186
172.70	11.6026
172.72	11.5872
172.73	11.5715
172.75	11.5564
172.77	11.5415
172.79	11.5266
172.80	11.5121
172.82	11.4980
172.83	11.4839
172.85	11.4698
172.87	11.4563
172.89	11.4426
172.90	11.4293
172.92	11.4162
172.94	11.4032
172.95	11.3906
172.97	11.3783
172.99	11.3661
173.00	11.3539
173.02	11.3421
173.03	11.3305
173.05	11.3193
173.07	11.3082
173.09	11.2972
173.10	11.2866
173.12	11.2760
173.14	11.2657
173.15	11.2557
173.17	11.2458
173.19	11.2358
173.20	11.2261
173.22	11.2166
173.24	11.2074
173.25	11.1984
173.27	11.1896
173.28	11.1809
173.30	11.1725
173.32	11.1642
173.34	11.1560
173.35	11.1480
173.37	11.1401
173.38	11.1321
173.40	11.1244
173.42	11.1169
173.44	11.1097
173.45	11.1023
173.47	11.0955
173.48	11.0885
173.50	11.0818
173.52	11.0751
173.53	11.0686
173.55	11.0622
173.57	11.0561
173.59	11.0500
173.60	11.0441
173.62	11.0383
173.63	11.0327
173.65	11.0272
173.67	11.0217
173.68	11.0164
173.70	11.0112
173.72	11.0063
173.73	11.0013
173.75	10.9966
173.77	10.9921
173.78	10.9874
173.80	10.9832
173.82	10.9790
173.84	10.9749
173.85	10.9709
173.87	10.9672
173.88	10.9631
173.90	10.9594
173.92	10.9558
173.93	10.9521
173.95	10.9485
173.97	10.9453
173.98	10.9419
174.00	10.9386
174.02	10.9356
174.04	10.9325
174.05	10.9296
174.07	10.9267
174.09	10.9241
174.10	10.9215
174.12	10.9191
174.14	10.9166
174.15	10.9140
174.17	10.9117
174.19	10.9093
174.20	10.9070
174.22	10.9048
174.24	10.9027
174.25	10.9005
174.27	10.8987
174.28	10.8966
174.30	10.8948
174.31	10.8930
174.33	10.8912
174.35	10.8895
174.37	10.8879
174.39	10.8864
174.40	10.8849
174.42	10.8835
174.43	10.8819
174.45	10.8807
174.47	10.8797
174.48	10.8781
174.50	10.8770
174.52	10.8759
174.53	10.8750
174.55	10.8738
174.57	10.8726
174.58	10.8716
174.60	10.8705
174.62	10.8699
174.63	10.8694
174.65	10.8686
174.67	10.8680
174.68	10.8674
174.70	10.8670
174.72	10.8661
174.73	10.8657
174.75	10.8651
174.77	10.8648
174.78	10.8644
174.80	10.8639
174.82	10.8637
174.83	10.8635
174.85	10.8633
174.87	10.8632
174.88	10.8632
174.90	10.8631
174.92	10.8629
174.93	10.8625
174.95	10.8625
174.97	10.8623
174.98	10.8622
175.00	10.8621
175.02	10.8620
175.03	10.8621
175.05	10.8622
175.07	10.8622
175.08	10.8621
175.10	10.8625
175.12	10.8624
175.13	10.8624
175.15	10.8625
175.17	10.8625
175.18	10.8624
175.20	10.8627
175.22	10.8630
175.23	10.8632
175.25	10.8634
175.27	10.8636
175.28	10.8643
175.30	10.8647
175.32	10.8648
175.33	10.8652
175.35	10.8656
175.36	10.8657
175.38	10.8659
175.40	10.8663
175.41	10.8666
175.43	10.8669
175.45	10.8676
175.47	10.8680
175.48	10.8684
175.50	10.8689
175.52	10.8692
175.53	10.8695
175.54	10.8701
175.56	10.8705
175.58	10.8709
175.60	10.8715
175.62	10.8722
175.63	10.8726
175.65	10.8735
175.67	10.8741
175.68	10.8748
175.70	10.8756
175.72	10.8762
175.73	10.8772
175.75	10.8778
175.76	10.8783
175.78	10.8790
175.80	10.8800
175.82	10.8807
175.83	10.8814
175.85	10.8822
175.87	10.8828
175.88	10.8837
175.90	10.8844
175.92	10.8854
175.93	10.8860
175.95	10.8870
175.97	10.8878
175.98	10.8885
176.00	10.8897
176.02	10.8905
176.03	10.8915
176.05	10.8924
176.07	10.8933
176.08	10.8944
176.10	10.8953
176.12	10.8966
176.13	10.8974
176.15	10.8985
176.16	10.8993
176.18	10.9004
176.20	10.9014
176.22	10.9025
176.23	10.9037
176.25	10.9048
176.26	10.9060
176.28	10.9071
176.30	10.9084
176.31	10.9096
176.33	10.9107
176.35	10.9117
176.36	10.9126
176.38	10.9136
176.40	10.9147
176.42	10.9158
176.43	10.9170
176.45	10.9183
176.47	10.9192
176.48	10.9201
176.50	10.9213
176.51	10.9224
176.53	10.9234
176.55	10.9245
176.56	10.9253
176.58	10.9264
176.60	10.9272
176.61	10.9284
176.63	10.9295
176.65	10.9305
176.67	10.9316
176.68	10.9325
176.70	10.9336
176.72	10.9346
176.73	10.9356
176.75	10.9366
176.77	10.9374
176.78	10.9384
176.80	10.9392
176.81	10.9401
176.83	10.9413
176.85	10.9423
176.87	10.9432
176.88	10.9440
176.90	10.9453
176.91	10.9461
176.93	10.9471
176.94	10.9481
176.97	10.9488
176.98	10.9497
177.00	10.9509
177.02	10.9519
177.03	10.9529
177.05	10.9540
177.07	10.9551
177.08	10.9559
177.10	10.9570
177.11	10.9580
177.13	10.9591
177.15	10.9603
177.17	10.9611
177.18	10.9622
177.20	10.9632
177.22	10.9644
177.23	10.9654
177.25	10.9663
177.26	10.9673
177.28	10.9684
177.30	10.9696
177.32	10.9707
177.33	10.9720
177.35	10.9733
177.37	10.9744
177.38	10.9755
177.40	10.9766
177.42	10.9777
177.43	10.9791
177.45	10.9802
177.46	10.9814
177.48	10.9827
177.50	10.9840
177.51	10.9851
177.53	10.9865
177.55	10.9875
177.57	10.9887
177.58	10.9901
177.60	10.9912
177.61	10.9924
177.63	10.9937
177.65	10.9952
177.67	10.9965
177.68	10.9980
177.70	10.9991
177.71	11.0005
177.73	11.0018
177.75	11.0030
177.76	11.0042
177.78	11.0057
177.80	11.0068
177.81	11.0081
177.83	11.0093
177.85	11.0108
177.86	11.0119
177.88	11.0133
177.90	11.0144
177.91	11.0158
177.93	11.0169
177.94	11.0181
177.97	11.0191
177.98	11.0205
178.00	11.0216
178.01	11.0227
178.03	11.0239
178.05	11.0251
178.06	11.0265
178.08	11.0278
178.10	11.0290
178.11	11.0301
178.13	11.0315
178.15	11.0327
178.16	11.0336
178.18	11.0350
178.19	11.0361
178.21	11.0373
178.23	11.0388
178.25	11.0399
178.26	11.0413
178.28	11.0428
178.30	11.0439
178.31	11.0449
178.33	11.0462
178.35	11.0474
178.36	11.0487
178.38	11.0498
178.40	11.0511
178.41	11.0523
178.43	11.0539
178.44	11.0552
178.47	11.0566
178.48	11.0581
178.50	11.0594
178.51	11.0610
178.53	11.0625
178.54	11.0638
178.56	11.0651
178.58	11.0663
178.60	11.0679
178.61	11.0693
178.63	11.0706
178.64	11.0720
178.66	11.0733
178.68	11.0746
178.69	11.0758
178.71	11.0768
178.73	11.0782
178.75	11.0795
178.77	11.0809
178.78	11.0822
178.80	11.0835
178.81	11.0847
178.83	11.0859
178.85	11.0873
178.86	11.0885
178.88	11.0896
178.90	11.0909
178.91	11.0920
178.93	11.0930
178.94	11.0944
178.96	11.0957
178.98	11.0968
179.00	11.0984
179.01	11.0995
179.03	11.1009
179.04	11.1021
179.06	11.1033
179.08	11.1046
179.10	11.1057
179.11	11.1071
179.13	11.1084
179.15	11.1097
179.16	11.1109
179.18	11.1122
179.19	11.1135
179.21	11.1147
179.23	11.1160
179.24	11.1173
179.26	11.1187
179.28	11.1200
179.30	11.1212
179.31	11.1221
179.33	11.1235
179.35	11.1248
179.36	11.1261
179.38	11.1274
179.40	11.1286
179.41	11.1299
179.42	11.1313
179.44	11.1326
179.46	11.1337
179.47	11.1352
179.49	11.1365
179.51	11.1376
179.53	11.1388
179.54	11.1401
179.56	11.1411
179.58	11.1422
179.60	11.1435
179.61	11.1450
179.63	11.1462
179.65	11.1476
179.66	11.1487
179.68	11.1501
179.69	11.1512
179.71	11.1522
179.72	11.1534
179.75	11.1546
179.76	11.1557
179.78	11.1572
179.79	11.1581
179.81	11.1595
179.83	11.1610
179.84	11.1621
179.86	11.1634
179.88	11.1648
179.90	11.1658
179.91	11.1669
179.93	11.1682
179.94	11.1694
179.96	11.1707
179.98	11.1720
179.99	11.1731
180.01	11.1746
180.03	11.1759
180.04	11.1771
180.06	11.1784
180.08	11.1796
180.10	11.1810
180.11	11.1821
180.13	11.1837
180.14	11.1849
180.16	11.1862
180.18	11.1876
180.19	11.1891
180.20	11.1904
180.22	11.1918
180.25	11.1932
180.26	11.1946
180.28	11.1961
180.29	11.1973
180.31	11.1987
180.33	11.2002
180.34	11.2013
180.36	11.2026
180.38	11.2039
180.40	11.2052
180.41	11.2065
180.43	11.2081
180.44	11.2096
180.46	11.2108
180.48	11.2124
180.50	11.2138
180.51	11.2152
180.53	11.2162
180.54	11.2176
180.56	11.2189
180.58	11.2204
180.60	11.2219
180.61	11.2233
180.63	11.2249
180.64	11.2264
180.66	11.2277
180.67	11.2292
180.69	11.2305
180.71	11.2319
180.72	11.2334
180.74	11.2345
180.76	11.2358
180.78	11.2374
180.79	11.2385
180.81	11.2399
180.83	11.2411
180.84	11.2424
180.86	11.2439
180.88	11.2450
180.89	11.2463
180.91	11.2478
180.93	11.2489
180.94	11.2502
180.96	11.2514
180.98	11.2527
180.99	11.2537
181.01	11.2552
181.03	11.2563
181.05	11.2575
181.06	11.2588
181.08	11.2601
181.09	11.2614
181.11	11.2626
181.13	11.2639
181.14	11.2650
181.16	11.2663
181.18	11.2674
181.19	11.2686
181.21	11.2702
181.22	11.2714
181.25	11.2726
181.26	11.2740
181.28	11.2754
181.29	11.2764
181.31	11.2778
181.33	11.2790
181.34	11.2801
181.36	11.2815
181.38	11.2829
181.39	11.2838
181.41	11.2853
181.43	11.2866
181.44	11.2879
181.46	11.2893
181.47	11.2905
181.49	11.2916
181.51	11.2929
181.53	11.2940
181.54	11.2952
181.56	11.2964
181.58	11.2977
181.59	11.2990
181.60	11.3002
181.63	11.3015
181.64	11.3027
181.66	11.3041
181.68	11.3053
181.69	11.3066
181.70	11.3077
181.72	11.3090
181.74	11.3102
181.76	11.3115
181.78	11.3131
181.79	11.3142
181.80	11.3156
181.82	11.3171
181.84	11.3185
181.85	11.3195
181.88	11.3212
181.89	11.3223
181.91	11.3236
181.93	11.3252
181.94	11.3266
181.96	11.3278
181.97	11.3292
181.99	11.3306
182.00	11.3320
182.03	11.3334
182.04	11.3346
182.05	11.3358
182.07	11.3371
182.09	11.3383
182.11	11.3394
182.12	11.3408
182.14	11.3420
182.15	11.3433
182.18	11.3445
182.19	11.3457
182.20	11.3472
182.22	11.3485
182.24	11.3497
182.25	11.3511
182.28	11.3523
182.29	11.3535
182.30	11.3549
182.32	11.3558
182.32	11.3571
182.34	11.3585
182.37	11.3599
182.39	11.3611
182.40	11.3624
182.42	11.3635
182.44	11.3647
182.46	11.3662
182.47	11.3676
182.49	11.3688
182.51	11.3703
182.52	11.3718
182.54	11.3730
182.55	11.3741
182.57	11.3755
182.59	11.3767
182.60	11.3781
182.62	11.3792
182.64	11.3805
182.65	11.3818
182.67	11.3831
182.69	11.3843
182.70	11.3856
182.72	11.3871
182.74	11.3884
182.75	11.3900
182.77	11.3916
182.79	11.3929
182.80	11.3945
182.82	11.3959
182.84	11.3973
182.86	11.3988
182.88	11.4001
182.89	11.4013
182.90	11.4025
182.92	11.4040
182.93	11.4052
182.95	11.4068
182.97	11.4080
182.99	11.4093
183.00	11.4108
183.02	11.4120
183.04	11.4133
183.05	11.4146
183.07	11.4158
183.09	11.4173
183.10	11.4187
183.12	11.4198
183.13	11.4210
183.15	11.4224
183.17	11.4238
183.19	11.4251
183.20	11.4267
183.22	11.4277
183.24	11.4289
183.25	11.4303
183.27	11.4316
183.28	11.4327
183.30	11.4338
183.32	11.4351
183.33	11.4363
183.35	11.4377
183.37	11.4389
183.39	11.4401
183.40	11.4415
183.42	11.4426
183.43	11.4439
183.45	11.4453
183.47	11.4466
183.49	11.4477
183.50	11.4491
183.52	11.4501
183.53	11.4514
183.55	11.4526
183.57	11.4540
183.58	11.4554
183.60	11.4568
183.62	11.4581
183.63	11.4593
183.65	11.4607
183.67	11.4620
183.68	11.4629
183.70	11.4641
183.72	11.4651
183.73	11.4661
183.75	11.4676
183.77	11.4689
183.78	11.4704
183.80	11.4718
183.82	11.4729
183.83	11.4741
183.85	11.4754
183.87	11.4767
183.88	11.4777
183.90	11.4791
183.92	11.4803
183.93	11.4817
183.95	11.4831
183.97	11.4846
183.98	11.4856
184.00	11.4870
184.02	11.4882
184.04	11.4895
184.05	11.4907
184.07	11.4920
184.08	11.4931
184.10	11.4943
184.12	11.4956
184.13	11.4967
184.15	11.4983
184.17	11.4995
184.18	11.5009
184.20	11.5023
184.22	11.5036
184.24	11.5050
184.25	11.5064
184.27	11.5076
184.28	11.5089
184.30	11.5104
184.32	11.5115
184.33	11.5127
184.35	11.5142
184.37	11.5152
184.39	11.5164
184.40	11.5179
184.42	11.5190
184.44	11.5204
184.45	11.5218
184.47	11.5231
184.48	11.5243
184.50	11.5257
184.52	11.5269
184.54	11.5280
184.55	11.5297
184.57	11.5309
184.58	11.5325
184.60	11.5338
184.62	11.5352
184.64	11.5367
184.65	11.5379
184.67	11.5392
184.69	11.5407
184.70	11.5419
184.72	11.5433
184.74	11.5447
184.75	11.5459
184.77	11.5474
184.79	11.5489
184.80	11.5504
184.82	11.5519
184.84	11.5532
184.85	11.5543
184.87	11.5554
184.88	11.5569
184.90	11.5585
184.92	11.5600
184.93	11.5614
184.95	11.5630
184.97	11.5643
184.99	11.5658
185.00	11.5673
185.02	11.5686
185.03	11.5697
185.05	11.5711
185.07	11.5725
185.08	11.5738
185.10	11.5754
185.12	11.5767
185.14	11.5782
185.15	11.5798
185.16	11.5812
185.18	11.5826
185.20	11.5840
185.22	11.5855
185.23	11.5867
185.25	11.5880
185.27	11.5892
185.29	11.5904
185.30	11.5917
185.32	11.5929
185.34	11.5943
185.35	11.5954
185.37	11.5967
185.39	11.5978
185.40	11.5988
185.42	11.5999
185.43	11.6012
185.44	11.6025
185.47	11.6034
185.48	11.6047
185.50	11.6060
185.52	11.6072
185.54	11.6084
185.55	11.6095
185.57	11.6107
185.59	11.6121
185.60	11.6134
185.62	11.6147
185.63	11.6161
185.65	11.6173
185.67	11.6183
185.69	11.6197
185.70	11.6210
185.72	11.6224
185.74	11.6236
185.75	11.6250
185.77	11.6265
185.79	11.6279
185.80	11.6293
185.82	11.6306
185.83	11.6318
185.85	11.6332
185.87	11.6346
185.89	11.6360
185.90	11.6373
185.92	11.6384
185.93	11.6401
185.95	11.6416
185.97	11.6432
185.98	11.6447
186.00	11.6456
186.02	11.6470
186.03	11.6485
186.05	11.6496
186.07	11.6509
186.09	11.6524
186.10	11.6538
186.12	11.6550
186.13	11.6567
186.15	11.6580
186.17	11.6591
186.18	11.6608
186.20	11.6622
186.22	11.6637
186.23	11.6652
186.25	11.6668
186.27	11.6680
186.29	11.6695
186.30	11.6709
186.32	11.6723
186.33	11.6735
186.35	11.6747
186.37	11.6760
186.39	11.6771
186.40	11.6786
186.42	11.6797
186.44	11.6808
186.45	11.6823
186.47	11.6832
186.49	11.6845
186.50	11.6856
186.52	11.6869
186.53	11.6879
186.55	11.6894
186.57	11.6905
186.58	11.6919
186.60	11.6933
186.62	11.6946
186.63	11.6961
186.65	11.6975
186.67	11.6988
186.69	11.7000
186.70	11.7012
186.72	11.7028
186.74	11.7041
186.75	11.7058
186.77	11.7071
186.78	11.7083
186.80	11.7101
186.82	11.7112
186.83	11.7127
186.85	11.7141
186.87	11.7156
186.88	11.7171
186.90	11.7184
186.92	11.7197
186.93	11.7211
186.95	11.7227
186.97	11.7240
186.99	11.7257
187.00	11.7271
187.02	11.7285
187.04	11.7301
187.05	11.7314
187.07	11.7330
187.09	11.7345
187.10	11.7357
187.12	11.7371
187.13	11.7383
187.15	11.7399
187.17	11.7410
187.19	11.7425
187.20	11.7439
187.22	11.7451
187.24	11.7467
187.25	11.7482
187.27	11.7495
187.29	11.7506
187.30	11.7521
187.32	11.7531
187.34	11.7546
187.35	11.7560
187.37	11.7572
187.38	11.7587
187.40	11.7595
187.42	11.7609
187.43	11.7623
187.45	11.7636
187.47	11.7650
187.48	11.7661
187.50	11.7678
187.52	11.7690
187.54	11.7706
187.55	11.7718
187.57	11.7731
187.58	11.7744
187.60	11.7757
187.62	11.7772
187.64	11.7785
187.65	11.7797
187.67	11.7809
187.69	11.7823
187.70	11.7837
187.72	11.7850
187.74	11.7865
187.75	11.7879
187.77	11.7890
187.79	11.7904
187.80	11.7916
187.82	11.7928
187.84	11.7940
187.85	11.7953
187.87	11.7966
187.88	11.7977
187.90	11.7993
187.92	11.8006
187.93	11.8019
187.94	11.8034
187.97	11.8046
187.98	11.8060
188.00	11.8073
188.02	11.8085
188.04	11.8098
188.05	11.8109
188.07	11.8122
188.08	11.8134
188.10	11.8147
188.12	11.8159
188.13	11.8171
188.15	11.8185
188.17	11.8197
188.19	11.8209
188.20	11.8222
188.22	11.8237
188.23	11.8249
188.25	11.8262
188.27	11.8272
188.28	11.8286
188.30	11.8301
188.32	11.8314
188.34	11.8328
188.35	11.8341
188.37	11.8352
188.39	11.8363
188.40	11.8376
188.42	11.8385
188.43	11.8400
188.45	11.8413
188.47	11.8424
188.48	11.8438
188.50	11.8452
188.52	11.8465
188.53	11.8476
188.55	11.8492
188.57	11.8503
188.58	11.8518
188.60	11.8527
188.62	11.8541
188.63	11.8554
188.65	11.8566
188.67	11.8580
188.69	11.8593
188.70	11.8606
188.72	11.8620
188.73	11.8632
188.75	11.8648
188.77	11.8660
188.79	11.8674
188.80	11.8688
188.81	11.8700
188.83	11.8712
188.85	11.8726
188.87	11.8739
188.88	11.8753
188.90	11.8768
188.92	11.8780
188.93	11.8795
188.95	11.8810
188.97	11.8824
188.98	11.8838
189.00	11.8851
189.02	11.8866
189.03	11.8877
189.05	11.8892
189.07	11.8905
189.08	11.8918
189.10	11.8933
189.12	11.8945
189.13	11.8960
189.15	11.8973
189.17	11.8987
189.18	11.9001
189.20	11.9014
189.22	11.9028
189.23	11.9042
189.25	11.9056
189.27	11.9069
189.28	11.9083
189.30	11.9100
189.32	11.9113
189.33	11.9126
189.35	11.9140
189.37	11.9155
189.38	11.9167
189.40	11.9180
189.42	11.9193
189.44	11.9207
189.46	11.9218
189.47	11.9230
189.48	11.9245
189.50	11.9257
189.52	11.9269
189.53	11.9282
189.55	11.9295
189.57	11.9308
189.58	11.9319
189.60	11.9332
189.62	11.9345
189.64	11.9358
189.65	11.9370
189.67	11.9384
189.68	11.9398
189.70	11.9412
189.72	11.9425
189.73	11.9438
189.75	11.9455
189.77	11.9468
189.79	11.9482
189.80	11.9497
189.82	11.9511
189.83	11.9526
189.85	11.9541
189.87	11.9557
189.88	11.9573
189.90	11.9589
189.92	11.9605
189.93	11.9618
189.95	11.9635
189.97	11.9650
189.98	11.9665
190.00	11.9678
190.02	11.9694
190.03	11.9708
190.05	11.9723
190.07	11.9739
190.08	11.9755
190.10	11.9769
190.13	11.9784
190.14	11.9801
190.15	11.9816
190.17	11.9831
190.19	11.9844
190.21	11.9859
190.22	11.9874
190.24	11.9887
190.25	11.9900
190.27	11.9915
190.29	11.9931
190.30	11.9944
190.32	11.9958
190.34	11.9973
190.35	11.9989
190.37	12.0001
190.38	12.0017
190.40	12.0031
190.42	12.0045
190.44	12.0058
190.45	12.0072
190.47	12.0087
190.49	12.0099
190.50	12.0113
190.52	12.0128
190.53	12.0144
190.55	12.0156
190.57	12.0169
190.59	12.0182
190.60	12.0196
190.62	12.0209
190.63	12.0223
190.65	12.0237
190.67	12.0253
190.68	12.0268
190.70	12.0281
190.72	12.0295
190.74	12.0312
190.75	12.0326
190.77	12.0339
190.79	12.0354
190.80	12.0370
190.82	12.0381
190.83	12.0395
190.85	12.0409
190.87	12.0425
190.88	12.0440
190.90	12.0452
190.92	12.0469
190.93	12.0483
190.95	12.0496
190.97	12.0510
190.98	12.0523
191.00	12.0539
191.02	12.0551
191.03	12.0564
191.05	12.0576
191.07	12.0591
191.08	12.0606
191.10	12.0618
191.12	12.0634
191.13	12.0649
191.15	12.0663
191.17	12.0675
191.18	12.0690
191.20	12.0703
191.22	12.0717
191.24	12.0729
191.25	12.0744
191.27	12.0758
191.28	12.0772
191.30	12.0788
191.32	12.0802
191.33	12.0817
191.35	12.0829
191.36	12.0844
191.38	12.0856
191.40	12.0871
191.42	12.0886
191.43	12.0900
191.45	12.0916
191.47	12.0931
191.48	12.0947
191.50	12.0960
191.52	12.0974
191.53	12.0988
191.55	12.1001
191.56	12.1014
191.58	12.1029
191.60	12.1041
191.62	12.1055
191.63	12.1069
191.65	12.1083
191.66	12.1098
191.68	12.1114
191.70	12.1127
191.72	12.1142
191.73	12.1155
191.75	12.1169
191.77	12.1181
191.78	12.1195
191.80	12.1210
191.82	12.1225
191.83	12.1238
191.85	12.1250
191.87	12.1265
191.88	12.1278
191.90	12.1292
191.92	12.1307
191.93	12.1317
191.95	12.1329
191.97	12.1344
191.98	12.1357
192.00	12.1368
192.02	12.1383
192.04	12.1398
192.05	12.1412
192.07	12.1427
192.08	12.1442
192.10	12.1455
192.12	12.1467
192.13	12.1482
192.15	12.1493
192.16	12.1505
192.18	12.1517
192.20	12.1530
192.22	12.1546
192.23	12.1562
192.25	12.1576
192.27	12.1588
192.28	12.1601
192.30	12.1614
192.32	12.1628
192.33	12.1640
192.35	12.1653
192.37	12.1665
192.38	12.1679
192.40	12.1692
192.42	12.1704
192.43	12.1720
192.45	12.1734
192.47	12.1747
192.48	12.1758
192.50	12.1770
192.51	12.1783
192.53	12.1797
192.55	12.1808
192.57	12.1821
192.58	12.1836
192.60	12.1849
192.62	12.1860
192.63	12.1874
192.65	12.1884
192.67	12.1899
192.68	12.1911
192.70	12.1923
192.71	12.1937
192.73	12.1951
192.75	12.1965
192.77	12.1977
192.78	12.1992
192.80	12.2005
192.81	12.2019
192.83	12.2032
192.85	12.2045
192.87	12.2060
192.88	12.2074
192.90	12.2089
192.92	12.2102
192.93	12.2116
192.94	12.2130
192.96	12.2146
192.98	12.2158
193.00	12.2171
193.02	12.2186
193.04	12.2201
193.05	12.2213
193.06	12.2227
193.08	12.2241
193.10	12.2254
193.11	12.2269
193.13	12.2282
193.15	12.2295
193.17	12.2311
193.18	12.2326
193.19	12.2338
193.21	12.2351
193.23	12.2367
193.25	12.2381
193.26	12.2396
193.28	12.2411
193.30	12.2423
193.32	12.2439
193.33	12.2451
193.35	12.2464
193.36	12.2477
193.38	12.2491
193.40	12.2505
193.41	12.2518
193.43	12.2531
193.44	12.2545
193.46	12.2559
193.48	12.2571
193.50	12.2582
193.51	12.2595
193.53	12.2608
193.55	12.2623
193.57	12.2634
193.58	12.2648
193.60	12.2661
193.61	12.2676
193.63	12.2689
193.65	12.2704
193.66	12.2719
193.68	12.2736
193.69	12.2749
193.71	12.2764
193.73	12.2778
193.75	12.2791
193.76	12.2806
193.78	12.2819
193.80	12.2834
193.81	12.2849
193.83	12.2864
193.85	12.2878
193.86	12.2894
193.88	12.2910
193.90	12.2924
193.92	12.2938
193.93	12.2951
193.94	12.2965
193.97	12.2979
193.98	12.2993
194.00	12.3007
194.02	12.3021
194.03	12.3034
194.05	12.3047
194.07	12.3062
194.08	12.3075
194.10	12.3088
194.12	12.3102
194.13	12.3116
194.15	12.3129
194.17	12.3141
194.18	12.3155
194.20	12.3169
194.22	12.3185
194.23	12.3198
194.25	12.3212
194.27	12.3229
194.28	12.3242
194.30	12.3256
194.31	12.3269
194.33	12.3284
194.35	12.3296
194.37	12.3310
194.38	12.3324
194.40	12.3337
194.41	12.3351
194.43	12.3366
194.44	12.3379
194.47	12.3395
194.48	12.3405
194.50	12.3418
194.52	12.3432
194.53	12.3444
194.55	12.3458
194.56	12.3471
194.58	12.3486
194.60	12.3500
194.61	12.3515
194.63	12.3528
194.65	12.3542
194.66	12.3558
194.68	12.3572
194.70	12.3583
194.72	12.3598
194.73	12.3612
194.75	12.3629
194.77	12.3643
194.78	12.3657
194.80	12.3671
194.82	12.3685
194.83	12.3701
194.85	12.3715
194.87	12.3729
194.88	12.3742
194.90	12.3756
194.91	12.3767
194.93	12.3781
194.95	12.3795
194.97	12.3809
194.98	12.3825
195.00	12.3841
195.01	12.3851
195.03	12.3864
195.05	12.3877
195.06	12.3891
195.08	12.3904
195.10	12.3917
195.12	12.3930
195.13	12.3940
195.15	12.3955
195.17	12.3968
195.18	12.3979
195.19	12.3994
195.22	12.4010
195.23	12.4023
195.25	12.4038
195.27	12.4050
195.28	12.4064
195.30	12.4076
195.31	12.4092
195.33	12.4105
195.35	12.4119
195.36	12.4134
195.38	12.4147
195.40	12.4163
195.42	12.4178
195.43	12.4193
195.45	12.4206
195.47	12.4219
195.48	12.4232
195.50	12.4247
195.51	12.4262
195.53	12.4273
195.55	12.4287
195.56	12.4300
195.58	12.4317
195.60	12.4332
195.62	12.4345
195.63	12.4359
195.65	12.4372
195.67	12.4386
195.68	12.4400
195.70	12.4412
195.72	12.4426
195.73	12.4438
195.75	12.4452
195.76	12.4467
195.78	12.4481
195.80	12.4497
195.82	12.4511
195.83	12.4526
195.85	12.4540
195.87	12.4554
195.88	12.4568
195.90	12.4582
195.92	12.4596
195.93	12.4610
195.94	12.4625
195.97	12.4639
195.98	12.4652
196.00	12.4669
196.02	12.4683
196.03	12.4697
196.05	12.4711
196.06	12.4726
196.08	12.4740
196.10	12.4756
196.11	12.4770
196.13	12.4784
196.15	12.4800
196.17	12.4815
196.18	12.4830
196.20	12.4844
196.22	12.4860
196.23	12.4875
196.25	12.4888
196.27	12.4901
196.28	12.4915
196.30	12.4931
196.32	12.4946
196.33	12.4959
196.35	12.4974
196.37	12.4988
196.38	12.5002
196.40	12.5017
196.41	12.5031
196.43	12.5046
196.44	12.5059
196.46	12.5073
196.48	12.5086
196.50	12.5098
196.52	12.5111
196.53	12.5126
196.55	12.5139
196.57	12.5155
196.58	12.5169
196.60	12.5186
196.61	12.5198
196.63	12.5210
196.65	12.5226
196.66	12.5240
196.68	12.5250
196.69	12.5263
196.72	12.5277
196.73	12.5289
196.75	12.5303
196.77	12.5318
196.79	12.5332
196.80	12.5345
196.81	12.5360
196.83	12.5375
196.85	12.5387
196.87	12.5401
196.88	12.5416
196.90	12.5428
196.92	12.5441
196.93	12.5452
196.95	12.5468
196.97	12.5483
196.98	12.5495
197.00	12.5510
197.01	12.5525
197.03	12.5540
197.05	12.5553
197.07	12.5567
197.08	12.5580
197.10	12.5594
197.12	12.5608
197.13	12.5622
197.15	12.5638
197.17	12.5654
197.18	12.5668
197.19	12.5681
197.21	12.5695
197.23	12.5708
197.25	12.5722
197.27	12.5735
197.28	12.5748
197.30	12.5761
197.31	12.5776
197.33	12.5787
197.35	12.5801
197.37	12.5815
197.38	12.5831
197.40	12.5842
197.42	12.5856
197.43	12.5872
197.44	12.5888
197.47	12.5901
197.48	12.5915
197.50	12.5930
197.52	12.5946
197.53	12.5959
197.55	12.5977
197.56	12.5990
197.58	12.6005
197.60	12.6019
197.61	12.6035
197.63	12.6048
197.65	12.6063
197.67	12.6077
197.68	12.6091
197.70	12.6105
197.72	12.6119
197.73	12.6133
197.75	12.6150
197.77	12.6165
197.79	12.6181
197.80	12.6195
197.81	12.6211
197.83	12.6225
197.85	12.6240
197.87	12.6253
197.88	12.6266
197.90	12.6281
197.92	12.6297
197.93	12.6310
197.95	12.6324
197.97	12.6340
197.98	12.6354
198.00	12.6368
198.01	12.6382
198.03	12.6396
198.05	12.6411
198.06	12.6426
198.08	12.6439
198.10	12.6454
198.11	12.6469
198.13	12.6485
198.15	12.6500
198.17	12.6514
198.18	12.6527
198.20	12.6542
198.22	12.6556
198.23	12.6571
198.25	12.6588
198.27	12.6603
198.28	12.6616
198.30	12.6632
198.32	12.6643
198.33	12.6658
198.35	12.6673
198.37	12.6686
198.39	12.6702
198.40	12.6716
198.42	12.6728
198.44	12.6742
198.45	12.6757
198.46	12.6770
198.48	12.6784
198.50	12.6800
198.52	12.6813
198.53	12.6826
198.55	12.6840
198.56	12.6855
198.58	12.6867
198.60	12.6880
198.62	12.6893
198.63	12.6906
198.65	12.6918
198.67	12.6929
198.68	12.6943
198.69	12.6955
198.71	12.6969
198.73	12.6983
198.75	12.6996
198.76	12.7011
198.78	12.7022
198.80	12.7035
198.82	12.7049
198.83	12.7061
198.85	12.7073
198.87	12.7087
198.88	12.7098
198.90	12.7110
198.92	12.7126
198.93	12.7137
198.94	12.7150
198.96	12.7166
198.98	12.7181
199.00	12.7194
199.01	12.7208
199.03	12.7220
199.05	12.7236
199.06	12.7248
199.08	12.7262
199.10	12.7275
199.12	12.7292
199.13	12.7306
199.15	12.7319
199.17	12.7334
199.18	12.7345
199.20	12.7361
199.21	12.7374
199.23	12.7385
199.25	12.7401
199.26	12.7415
199.28	12.7428
199.30	12.7442
199.32	12.7456
199.33	12.7470
199.35	12.7484
199.37	12.7497
199.38	12.7508
199.40	12.7523
199.42	12.7537
199.43	12.7551
199.45	12.7564
199.47	12.7579
199.48	12.7591
199.50	12.7605
199.51	12.7618
199.53	12.7632
199.55	12.7646
199.56	12.7660
199.58	12.7672
199.60	12.7689
199.62	12.7704
199.63	12.7718
199.65	12.7730
199.67	12.7747
199.68	12.7762
199.70	12.7775
199.71	12.7791
199.73	12.7804
199.75	12.7821
199.77	12.7834
199.78	12.7850
199.80	12.7865
199.82	12.7879
199.83	12.7894
199.85	12.7909
199.86	12.7922
199.88	12.7936
